#  E (eV)   dos(E)     Int dos(E) EFermi =   -0.466 eV
 -20.113  0.0000E+00  0.0000E+00
 -20.103  0.2688E+00  0.1344E-02
 -20.093  0.2534E+00  0.4993E-02
 -20.083  0.2760E+00  0.7640E-02
 -20.073  0.2985E+00  0.1051E-01
 -20.063  0.3210E+00  0.1361E-01
 -20.053  0.3211E+00  0.1688E-01
 -20.043  0.2931E+00  0.1995E-01
 -20.033  0.2863E+00  0.2281E-01
 -20.023  0.2942E+00  0.2571E-01
 -20.013  0.3021E+00  0.2869E-01
 -20.003  0.3101E+00  0.3175E-01
 -19.993  0.3180E+00  0.3489E-01
 -19.983  0.3005E+00  0.3810E-01
 -19.973  0.2987E+00  0.4110E-01
 -19.963  0.2969E+00  0.4407E-01
 -19.953  0.2951E+00  0.4703E-01
 -19.943  0.2953E+00  0.4998E-01
 -19.933  0.2993E+00  0.5295E-01
 -19.923  0.3033E+00  0.5597E-01
 -19.913  0.3074E+00  0.5902E-01
 -19.903  0.3114E+00  0.6211E-01
 -19.893  0.3154E+00  0.6525E-01
 -19.883  0.3077E+00  0.6837E-01
 -19.873  0.2972E+00  0.7140E-01
 -19.863  0.2974E+00  0.7437E-01
 -19.853  0.2982E+00  0.7735E-01
 -19.843  0.2989E+00  0.8033E-01
 -19.833  0.2996E+00  0.8333E-01
 -19.823  0.3004E+00  0.8633E-01
 -19.813  0.3018E+00  0.8933E-01
 -19.803  0.3042E+00  0.9236E-01
 -19.793  0.3067E+00  0.9542E-01
 -19.783  0.3091E+00  0.9850E-01
 -19.773  0.3115E+00  0.1016E+00
 -19.763  0.3139E+00  0.1047E+00
 -19.753  0.3037E+00  0.1078E+00
 -19.743  0.3018E+00  0.1108E+00
 -19.733  0.2998E+00  0.1138E+00
 -19.723  0.2985E+00  0.1168E+00
 -19.713  0.2994E+00  0.1198E+00
 -19.703  0.3004E+00  0.1228E+00
 -19.693  0.3013E+00  0.1258E+00
 -19.683  0.3023E+00  0.1288E+00
 -19.673  0.3032E+00  0.1319E+00
 -19.663  0.3042E+00  0.1349E+00
 -19.653  0.3051E+00  0.1379E+00
 -19.643  0.3066E+00  0.1410E+00
 -19.633  0.3082E+00  0.1441E+00
 -19.623  0.3099E+00  0.1472E+00
 -19.613  0.3106E+00  0.1503E+00
 -19.603  0.3057E+00  0.1533E+00
 -19.593  0.3022E+00  0.1564E+00
 -19.583  0.3019E+00  0.1594E+00
 -19.573  0.3016E+00  0.1624E+00
 -19.563  0.3014E+00  0.1654E+00
 -19.553  0.3011E+00  0.1684E+00
 -19.543  0.3008E+00  0.1715E+00
 -19.533  0.3014E+00  0.1745E+00
 -19.523  0.3023E+00  0.1775E+00
 -19.513  0.3031E+00  0.1805E+00
 -19.503  0.3040E+00  0.1835E+00
 -19.493  0.3049E+00  0.1866E+00
 -19.483  0.3057E+00  0.1896E+00
 -19.473  0.3066E+00  0.1927E+00
 -19.463  0.3074E+00  0.1958E+00
 -19.453  0.3083E+00  0.1989E+00
 -19.443  0.3093E+00  0.2019E+00
 -19.433  0.3105E+00  0.2050E+00
 -19.423  0.3055E+00  0.2081E+00
 -19.413  0.3043E+00  0.2112E+00
 -19.403  0.3032E+00  0.2142E+00
 -19.393  0.3021E+00  0.2172E+00
 -19.383  0.3023E+00  0.2202E+00
 -19.373  0.3025E+00  0.2233E+00
 -19.363  0.3027E+00  0.2263E+00
 -19.353  0.3028E+00  0.2293E+00
 -19.343  0.3030E+00  0.2324E+00
 -19.333  0.3032E+00  0.2354E+00
 -19.323  0.3034E+00  0.2384E+00
 -19.313  0.3040E+00  0.2415E+00
 -19.303  0.3047E+00  0.2445E+00
 -19.293  0.3054E+00  0.2475E+00
 -19.283  0.3061E+00  0.2506E+00
 -19.273  0.3068E+00  0.2537E+00
 -19.263  0.3075E+00  0.2567E+00
 -19.253  0.3083E+00  0.2598E+00
 -19.243  0.3090E+00  0.2629E+00
 -19.233  0.3097E+00  0.2660E+00
 -19.223  0.3084E+00  0.2691E+00
 -19.213  0.3054E+00  0.2722E+00
 -19.203  0.3044E+00  0.2752E+00
 -19.193  0.3042E+00  0.2783E+00
 -19.183  0.3039E+00  0.2813E+00
 -19.173  0.3037E+00  0.2843E+00
 -19.163  0.3034E+00  0.2874E+00
 -19.153  0.3033E+00  0.2904E+00
 -19.143  0.3036E+00  0.2934E+00
 -19.133  0.3039E+00  0.2965E+00
 -19.123  0.3042E+00  0.2995E+00
 -19.113  0.3045E+00  0.3026E+00
 -19.103  0.3048E+00  0.3056E+00
 -19.093  0.3051E+00  0.3086E+00
 -19.083  0.3055E+00  0.3117E+00
 -19.073  0.3058E+00  0.3148E+00
 -19.063  0.3061E+00  0.3178E+00
 -19.053  0.3067E+00  0.3209E+00
 -19.043  0.3073E+00  0.3240E+00
 -19.033  0.3079E+00  0.3270E+00
 -19.023  0.3085E+00  0.3301E+00
 -19.013  0.3091E+00  0.3332E+00
 -19.003  0.3097E+00  0.3363E+00
 -18.993  0.3103E+00  0.3394E+00
 -18.983  0.3071E+00  0.3425E+00
 -18.973  0.3063E+00  0.3455E+00
 -18.963  0.3055E+00  0.3486E+00
 -18.953  0.3047E+00  0.3517E+00
 -18.943  0.3047E+00  0.3547E+00
 -18.933  0.3047E+00  0.3577E+00
 -18.923  0.3047E+00  0.3608E+00
 -18.913  0.3048E+00  0.3638E+00
 -18.903  0.3048E+00  0.3669E+00
 -18.893  0.3049E+00  0.3699E+00
 -18.883  0.3049E+00  0.3730E+00
 -18.873  0.3052E+00  0.3760E+00
 -18.863  0.3055E+00  0.3791E+00
 -18.853  0.3059E+00  0.3821E+00
 -18.843  0.3062E+00  0.3852E+00
 -18.833  0.3065E+00  0.3883E+00
 -18.823  0.3069E+00  0.3913E+00
 -18.813  0.3072E+00  0.3944E+00
 -18.803  0.3075E+00  0.3975E+00
 -18.793  0.3079E+00  0.4006E+00
 -18.783  0.3082E+00  0.4036E+00
 -18.773  0.3086E+00  0.4067E+00
 -18.763  0.3090E+00  0.4098E+00
 -18.753  0.3095E+00  0.4129E+00
 -18.743  0.3100E+00  0.4160E+00
 -18.733  0.3101E+00  0.4191E+00
 -18.723  0.3083E+00  0.4222E+00
 -18.713  0.3070E+00  0.4253E+00
 -18.703  0.3068E+00  0.4283E+00
 -18.693  0.3066E+00  0.4314E+00
 -18.683  0.3063E+00  0.4345E+00
 -18.673  0.3061E+00  0.4375E+00
 -18.663  0.3058E+00  0.4406E+00
 -18.653  0.3059E+00  0.4436E+00
 -18.643  0.3060E+00  0.4467E+00
 -18.633  0.3061E+00  0.4498E+00
 -18.623  0.3062E+00  0.4528E+00
 -18.613  0.3064E+00  0.4559E+00
 -18.603  0.3066E+00  0.4590E+00
 -18.593  0.3067E+00  0.4620E+00
 -18.583  0.3069E+00  0.4651E+00
 -18.573  0.3070E+00  0.4682E+00
 -18.563  0.3073E+00  0.4712E+00
 -18.553  0.3077E+00  0.4743E+00
 -18.543  0.3080E+00  0.4774E+00
 -18.533  0.3083E+00  0.4805E+00
 -18.523  0.3086E+00  0.4836E+00
 -18.513  0.3089E+00  0.4866E+00
 -18.503  0.3093E+00  0.4897E+00
 -18.493  0.3096E+00  0.4928E+00
 -18.483  0.3099E+00  0.4959E+00
 -18.473  0.3102E+00  0.4990E+00
 -18.463  0.3106E+00  0.5021E+00
 -18.453  0.3109E+00  0.5052E+00
 -18.443  0.3094E+00  0.5083E+00
 -18.433  0.3089E+00  0.5114E+00
 -18.423  0.3083E+00  0.5145E+00
 -18.413  0.3078E+00  0.5176E+00
 -18.403  0.3075E+00  0.5207E+00
 -18.393  0.3075E+00  0.5238E+00
 -18.383  0.3075E+00  0.5268E+00
 -18.373  0.3075E+00  0.5299E+00
 -18.363  0.3075E+00  0.5330E+00
 -18.353  0.3075E+00  0.5361E+00
 -18.343  0.3075E+00  0.5391E+00
 -18.333  0.3075E+00  0.5422E+00
 -18.323  0.3076E+00  0.5453E+00
 -18.313  0.3078E+00  0.5484E+00
 -18.303  0.3080E+00  0.5514E+00
 -18.293  0.3081E+00  0.5545E+00
 -18.283  0.3083E+00  0.5576E+00
 -18.273  0.3085E+00  0.5607E+00
 -18.263  0.3087E+00  0.5638E+00
 -18.253  0.3089E+00  0.5669E+00
 -18.243  0.3091E+00  0.5699E+00
 -18.233  0.3093E+00  0.5730E+00
 -18.223  0.3095E+00  0.5761E+00
 -18.213  0.3098E+00  0.5792E+00
 -18.203  0.3101E+00  0.5823E+00
 -18.193  0.3104E+00  0.5854E+00
 -18.183  0.3107E+00  0.5885E+00
 -18.173  0.3111E+00  0.5916E+00
 -18.163  0.3114E+00  0.5948E+00
 -18.153  0.3117E+00  0.5979E+00
 -18.143  0.3120E+00  0.6010E+00
 -18.133  0.3118E+00  0.6041E+00
 -18.123  0.3105E+00  0.6072E+00
 -18.113  0.3098E+00  0.6103E+00
 -18.103  0.3095E+00  0.6134E+00
 -18.093  0.3093E+00  0.6165E+00
 -18.083  0.3091E+00  0.6196E+00
 -18.073  0.3090E+00  0.6227E+00
 -18.063  0.3088E+00  0.6258E+00
 -18.053  0.3089E+00  0.6289E+00
 -18.043  0.3090E+00  0.6320E+00
 -18.033  0.3091E+00  0.6351E+00
 -18.023  0.3092E+00  0.6381E+00
 -18.013  0.3093E+00  0.6412E+00
 -18.003  0.3093E+00  0.6443E+00
 -17.993  0.3094E+00  0.6474E+00
 -17.983  0.3095E+00  0.6505E+00
 -17.973  0.3096E+00  0.6536E+00
 -17.963  0.3098E+00  0.6567E+00
 -17.953  0.3100E+00  0.6598E+00
 -17.943  0.3101E+00  0.6629E+00
 -17.933  0.3103E+00  0.6660E+00
 -17.923  0.3105E+00  0.6691E+00
 -17.913  0.3107E+00  0.6722E+00
 -17.903  0.3109E+00  0.6753E+00
 -17.893  0.3111E+00  0.6784E+00
 -17.883  0.3113E+00  0.6816E+00
 -17.873  0.3115E+00  0.6847E+00
 -17.863  0.3117E+00  0.6878E+00
 -17.853  0.3119E+00  0.6909E+00
 -17.843  0.3122E+00  0.6940E+00
 -17.833  0.3124E+00  0.6971E+00
 -17.823  0.3127E+00  0.7003E+00
 -17.813  0.3130E+00  0.7034E+00
 -17.803  0.3133E+00  0.7065E+00
 -17.793  0.3123E+00  0.7097E+00
 -17.783  0.3119E+00  0.7128E+00
 -17.773  0.3116E+00  0.7159E+00
 -17.763  0.3112E+00  0.7190E+00
 -17.753  0.3110E+00  0.7221E+00
 -17.743  0.3109E+00  0.7252E+00
 -17.733  0.3109E+00  0.7283E+00
 -17.723  0.3109E+00  0.7315E+00
 -17.713  0.3108E+00  0.7346E+00
 -17.703  0.3108E+00  0.7377E+00
 -17.693  0.3107E+00  0.7408E+00
 -17.683  0.3107E+00  0.7439E+00
 -17.673  0.3109E+00  0.7470E+00
 -17.663  0.3110E+00  0.7501E+00
 -17.653  0.3111E+00  0.7532E+00
 -17.643  0.3113E+00  0.7563E+00
 -17.633  0.3114E+00  0.7594E+00
 -17.623  0.3115E+00  0.7626E+00
 -17.613  0.3117E+00  0.7657E+00
 -17.603  0.3118E+00  0.7688E+00
 -17.593  0.3119E+00  0.7719E+00
 -17.583  0.3120E+00  0.7750E+00
 -17.573  0.3122E+00  0.7781E+00
 -17.563  0.3124E+00  0.7813E+00
 -17.553  0.3126E+00  0.7844E+00
 -17.543  0.3128E+00  0.7875E+00
 -17.533  0.3130E+00  0.7907E+00
 -17.523  0.3132E+00  0.7938E+00
 -17.513  0.3134E+00  0.7969E+00
 -17.503  0.3136E+00  0.8000E+00
 -17.493  0.3138E+00  0.8032E+00
 -17.483  0.3140E+00  0.8063E+00
 -17.473  0.3142E+00  0.8095E+00
 -17.463  0.3144E+00  0.8126E+00
 -17.453  0.3146E+00  0.8158E+00
 -17.443  0.3148E+00  0.8189E+00
 -17.433  0.3148E+00  0.8220E+00
 -17.423  0.3139E+00  0.8252E+00
 -17.413  0.3134E+00  0.8283E+00
 -17.403  0.3133E+00  0.8315E+00
 -17.393  0.3132E+00  0.8346E+00
 -17.383  0.3131E+00  0.8377E+00
 -17.373  0.3130E+00  0.8409E+00
 -17.363  0.3129E+00  0.8440E+00
 -17.353  0.3129E+00  0.8471E+00
 -17.343  0.3130E+00  0.8502E+00
 -17.333  0.3130E+00  0.8534E+00
 -17.323  0.3131E+00  0.8565E+00
 -17.313  0.3131E+00  0.8596E+00
 -17.303  0.3132E+00  0.8628E+00
 -17.293  0.3132E+00  0.8659E+00
 -17.283  0.3133E+00  0.8690E+00
 -17.273  0.3133E+00  0.8722E+00
 -17.263  0.3134E+00  0.8753E+00
 -17.253  0.3136E+00  0.8784E+00
 -17.243  0.3137E+00  0.8816E+00
 -17.233  0.3139E+00  0.8847E+00
 -17.223  0.3140E+00  0.8878E+00
 -17.213  0.3142E+00  0.8910E+00
 -17.203  0.3143E+00  0.8941E+00
 -17.193  0.3145E+00  0.8973E+00
 -17.183  0.3146E+00  0.9004E+00
 -17.173  0.3148E+00  0.9036E+00
 -17.163  0.3149E+00  0.9067E+00
 -17.153  0.3151E+00  0.9099E+00
 -17.143  0.3153E+00  0.9130E+00
 -17.133  0.3155E+00  0.9162E+00
 -17.123  0.3157E+00  0.9193E+00
 -17.113  0.3159E+00  0.9225E+00
 -17.103  0.3161E+00  0.9256E+00
 -17.093  0.3163E+00  0.9288E+00
 -17.083  0.3164E+00  0.9320E+00
 -17.073  0.3166E+00  0.9351E+00
 -17.063  0.3168E+00  0.9383E+00
 -17.053  0.3170E+00  0.9415E+00
 -17.043  0.3163E+00  0.9446E+00
 -17.033  0.3161E+00  0.9478E+00
 -17.023  0.3158E+00  0.9510E+00
 -17.013  0.3156E+00  0.9541E+00
 -17.003  0.3155E+00  0.9573E+00
 -16.993  0.3154E+00  0.9604E+00
 -16.983  0.3154E+00  0.9636E+00
 -16.973  0.3155E+00  0.9667E+00
 -16.963  0.3155E+00  0.9699E+00
 -16.953  0.3155E+00  0.9730E+00
 -16.943  0.3155E+00  0.9762E+00
 -16.933  0.3156E+00  0.9794E+00
 -16.923  0.3157E+00  0.9825E+00
 -16.913  0.3158E+00  0.9857E+00
 -16.903  0.3159E+00  0.9888E+00
 -16.893  0.3160E+00  0.9920E+00
 -16.883  0.3161E+00  0.9951E+00
 -16.873  0.3162E+00  0.9983E+00
 -16.863  0.3163E+00  0.1001E+01
 -16.853  0.3164E+00  0.1005E+01
 -16.843  0.3165E+00  0.1008E+01
 -16.833  0.3166E+00  0.1011E+01
 -16.823  0.3167E+00  0.1014E+01
 -16.813  0.3168E+00  0.1017E+01
 -16.803  0.3170E+00  0.1020E+01
 -16.793  0.3171E+00  0.1024E+01
 -16.783  0.3173E+00  0.1027E+01
 -16.773  0.3175E+00  0.1030E+01
 -16.763  0.3176E+00  0.1033E+01
 -16.753  0.3178E+00  0.1036E+01
 -16.743  0.3180E+00  0.1040E+01
 -16.733  0.3181E+00  0.1043E+01
 -16.723  0.3183E+00  0.1046E+01
 -16.713  0.3185E+00  0.1049E+01
 -16.703  0.3186E+00  0.1052E+01
 -16.693  0.3188E+00  0.1055E+01
 -16.683  0.3190E+00  0.1059E+01
 -16.673  0.3192E+00  0.1062E+01
 -16.663  0.3194E+00  0.1065E+01
 -16.653  0.3196E+00  0.1068E+01
 -16.643  0.3198E+00  0.1071E+01
 -16.633  0.3196E+00  0.1075E+01
 -16.623  0.3190E+00  0.1078E+01
 -16.613  0.3188E+00  0.1081E+01
 -16.603  0.3188E+00  0.1084E+01
 -16.593  0.3187E+00  0.1087E+01
 -16.583  0.3187E+00  0.1091E+01
 -16.573  0.3186E+00  0.1094E+01
 -16.563  0.3186E+00  0.1097E+01
 -16.553  0.3187E+00  0.1100E+01
 -16.543  0.3187E+00  0.1103E+01
 -16.533  0.3188E+00  0.1106E+01
 -16.523  0.3189E+00  0.1110E+01
 -16.513  0.3189E+00  0.1113E+01
 -16.503  0.3190E+00  0.1116E+01
 -16.493  0.3191E+00  0.1119E+01
 -16.483  0.3192E+00  0.1122E+01
 -16.473  0.3193E+00  0.1126E+01
 -16.463  0.3194E+00  0.1129E+01
 -16.453  0.3196E+00  0.1132E+01
 -16.443  0.3197E+00  0.1135E+01
 -16.433  0.3198E+00  0.1138E+01
 -16.423  0.3200E+00  0.1142E+01
 -16.413  0.3201E+00  0.1145E+01
 -16.403  0.3203E+00  0.1148E+01
 -16.393  0.3204E+00  0.1151E+01
 -16.383  0.3205E+00  0.1154E+01
 -16.373  0.3207E+00  0.1158E+01
 -16.363  0.3208E+00  0.1161E+01
 -16.353  0.3209E+00  0.1164E+01
 -16.343  0.3211E+00  0.1167E+01
 -16.333  0.3213E+00  0.1170E+01
 -16.323  0.3215E+00  0.1174E+01
 -16.313  0.3216E+00  0.1177E+01
 -16.303  0.3218E+00  0.1180E+01
 -16.293  0.3220E+00  0.1183E+01
 -16.283  0.3222E+00  0.1187E+01
 -16.273  0.3223E+00  0.1190E+01
 -16.263  0.3225E+00  0.1193E+01
 -16.253  0.3227E+00  0.1196E+01
 -16.243  0.3229E+00  0.1199E+01
 -16.233  0.3231E+00  0.1203E+01
 -16.223  0.3233E+00  0.1206E+01
 -16.213  0.3235E+00  0.1209E+01
 -16.203  0.3236E+00  0.1212E+01
 -16.193  0.3230E+00  0.1216E+01
 -16.183  0.3229E+00  0.1219E+01
 -16.173  0.3228E+00  0.1222E+01
 -16.163  0.3228E+00  0.1225E+01
 -16.153  0.3229E+00  0.1229E+01
 -16.143  0.3229E+00  0.1232E+01
 -16.133  0.3230E+00  0.1235E+01
 -16.123  0.3231E+00  0.1238E+01
 -16.113  0.3231E+00  0.1241E+01
 -16.103  0.3232E+00  0.1245E+01
 -16.093  0.3233E+00  0.1248E+01
 -16.083  0.3234E+00  0.1251E+01
 -16.073  0.3235E+00  0.1254E+01
 -16.063  0.3237E+00  0.1258E+01
 -16.053  0.3238E+00  0.1261E+01
 -16.043  0.3239E+00  0.1264E+01
 -16.033  0.3240E+00  0.1267E+01
 -16.023  0.3242E+00  0.1271E+01
 -16.013  0.3243E+00  0.1274E+01
 -16.003  0.3245E+00  0.1277E+01
 -15.993  0.3246E+00  0.1280E+01
 -15.983  0.3248E+00  0.1284E+01
 -15.973  0.3250E+00  0.1287E+01
 -15.963  0.3252E+00  0.1290E+01
 -15.953  0.3254E+00  0.1293E+01
 -15.943  0.3255E+00  0.1297E+01
 -15.933  0.3257E+00  0.1300E+01
 -15.923  0.3259E+00  0.1303E+01
 -15.913  0.3261E+00  0.1306E+01
 -15.903  0.3263E+00  0.1310E+01
 -15.893  0.3265E+00  0.1313E+01
 -15.883  0.3267E+00  0.1316E+01
 -15.873  0.3269E+00  0.1319E+01
 -15.863  0.3270E+00  0.1323E+01
 -15.853  0.3272E+00  0.1326E+01
 -15.843  0.3275E+00  0.1329E+01
 -15.833  0.3277E+00  0.1332E+01
 -15.823  0.3279E+00  0.1336E+01
 -15.813  0.3281E+00  0.1339E+01
 -15.803  0.3283E+00  0.1342E+01
 -15.793  0.3285E+00  0.1346E+01
 -15.783  0.3287E+00  0.1349E+01
 -15.773  0.3290E+00  0.1352E+01
 -15.763  0.3292E+00  0.1355E+01
 -15.753  0.3294E+00  0.1359E+01
 -15.743  0.3292E+00  0.1362E+01
 -15.733  0.3291E+00  0.1365E+01
 -15.723  0.3292E+00  0.1369E+01
 -15.713  0.3293E+00  0.1372E+01
 -15.703  0.3294E+00  0.1375E+01
 -15.693  0.3295E+00  0.1379E+01
 -15.683  0.3296E+00  0.1382E+01
 -15.673  0.3298E+00  0.1385E+01
 -15.663  0.3300E+00  0.1388E+01
 -15.653  0.3302E+00  0.1392E+01
 -15.643  0.3304E+00  0.1395E+01
 -15.633  0.3306E+00  0.1398E+01
 -15.623  0.3308E+00  0.1402E+01
 -15.613  0.3310E+00  0.1405E+01
 -15.603  0.3312E+00  0.1408E+01
 -15.593  0.3315E+00  0.1412E+01
 -15.583  0.3317E+00  0.1415E+01
 -15.573  0.3319E+00  0.1418E+01
 -15.563  0.3322E+00  0.1422E+01
 -15.553  0.3324E+00  0.1425E+01
 -15.543  0.3327E+00  0.1428E+01
 -15.533  0.3329E+00  0.1431E+01
 -15.523  0.3332E+00  0.1435E+01
 -15.513  0.3334E+00  0.1438E+01
 -15.503  0.3337E+00  0.1441E+01
 -15.493  0.3340E+00  0.1445E+01
 -15.483  0.3342E+00  0.1448E+01
 -15.473  0.3346E+00  0.1452E+01
 -15.463  0.3349E+00  0.1455E+01
 -15.453  0.3353E+00  0.1458E+01
 -15.443  0.3357E+00  0.1462E+01
 -15.433  0.3360E+00  0.1465E+01
 -15.423  0.3364E+00  0.1468E+01
 -15.413  0.3368E+00  0.1472E+01
 -15.403  0.3371E+00  0.1475E+01
 -15.393  0.3375E+00  0.1478E+01
 -15.383  0.3379E+00  0.1482E+01
 -15.373  0.3382E+00  0.1485E+01
 -15.363  0.3386E+00  0.1489E+01
 -15.353  0.3390E+00  0.1492E+01
 -15.343  0.3393E+00  0.1495E+01
 -15.333  0.3397E+00  0.1499E+01
 -15.323  0.3401E+00  0.1502E+01
 -15.313  0.3405E+00  0.1506E+01
 -15.303  0.3410E+00  0.1509E+01
 -15.293  0.3414E+00  0.1512E+01
 -15.283  0.3418E+00  0.1516E+01
 -15.273  0.3419E+00  0.1519E+01
 -15.263  0.3422E+00  0.1523E+01
 -15.253  0.3426E+00  0.1526E+01
 -15.243  0.3430E+00  0.1529E+01
 -15.233  0.3436E+00  0.1533E+01
 -15.223  0.3442E+00  0.1536E+01
 -15.213  0.3448E+00  0.1540E+01
 -15.203  0.3454E+00  0.1543E+01
 -15.193  0.3459E+00  0.1547E+01
 -15.183  0.3465E+00  0.1550E+01
 -15.173  0.3471E+00  0.1554E+01
 -15.163  0.3478E+00  0.1557E+01
 -15.153  0.3484E+00  0.1561E+01
 -15.143  0.3493E+00  0.1564E+01
 -15.133  0.3501E+00  0.1568E+01
 -15.123  0.3509E+00  0.1571E+01
 -15.113  0.3518E+00  0.1575E+01
 -15.103  0.3526E+00  0.1578E+01
 -15.093  0.3535E+00  0.1582E+01
 -15.083  0.3543E+00  0.1585E+01
 -15.073  0.3552E+00  0.1589E+01
 -15.063  0.3561E+00  0.1592E+01
 -15.053  0.3571E+00  0.1596E+01
 -15.043  0.3580E+00  0.1599E+01
 -15.033  0.3589E+00  0.1603E+01
 -15.023  0.3598E+00  0.1607E+01
 -15.013  0.3607E+00  0.1610E+01
 -15.003  0.3618E+00  0.1614E+01
 -14.993  0.3633E+00  0.1617E+01
 -14.983  0.3649E+00  0.1621E+01
 -14.973  0.3664E+00  0.1625E+01
 -14.963  0.3680E+00  0.1628E+01
 -14.953  0.3701E+00  0.1632E+01
 -14.943  0.3732E+00  0.1636E+01
 -14.933  0.3763E+00  0.1640E+01
 -14.923  0.3794E+00  0.1643E+01
 -14.913  0.3825E+00  0.1647E+01
 -14.903  0.3857E+00  0.1651E+01
 -14.893  0.3888E+00  0.1655E+01
 -14.883  0.3919E+00  0.1659E+01
 -14.873  0.3950E+00  0.1663E+01
 -14.863  0.3981E+00  0.1667E+01
 -14.853  0.4013E+00  0.1671E+01
 -14.843  0.4044E+00  0.1675E+01
 -14.833  0.4075E+00  0.1679E+01
 -14.823  0.4106E+00  0.1683E+01
 -14.813  0.4137E+00  0.1687E+01
 -14.803  0.4182E+00  0.1691E+01
 -14.793  0.4230E+00  0.1695E+01
 -14.783  0.4277E+00  0.1700E+01
 -14.773  0.4325E+00  0.1704E+01
 -14.763  0.5877E+00  0.1709E+01
 -14.753  0.5654E+00  0.1715E+01
 -14.743  0.5431E+00  0.1720E+01
 -14.733  0.5208E+00  0.1726E+01
 -14.723  0.4986E+00  0.1731E+01
 -14.713  0.4764E+00  0.1736E+01
 -14.703  0.4542E+00  0.1740E+01
 -14.693  0.4320E+00  0.1745E+01
 -14.683  0.4098E+00  0.1749E+01
 -14.673  0.6358E+00  0.1753E+01
 -14.663  0.5655E+00  0.1759E+01
 -14.653  0.4956E+00  0.1765E+01
 -14.643  0.4257E+00  0.1769E+01
 -14.633  0.3557E+00  0.1773E+01
 -14.623  0.3227E+00  0.1776E+01
 -14.613  0.3184E+00  0.1780E+01
 -14.603  0.3141E+00  0.1783E+01
 -14.593  0.3098E+00  0.1786E+01
 -14.583  0.3055E+00  0.1789E+01
 -14.573  0.3011E+00  0.1792E+01
 -14.563  0.2988E+00  0.1795E+01
 -14.553  0.2968E+00  0.1798E+01
 -14.543  0.2947E+00  0.1801E+01
 -14.533  0.2927E+00  0.1804E+01
 -14.523  0.2907E+00  0.1807E+01
 -14.513  0.2887E+00  0.1810E+01
 -14.503  0.2866E+00  0.1813E+01
 -14.493  0.2846E+00  0.1815E+01
 -14.483  0.2675E+00  0.1823E+01
 -14.473  0.2641E+00  0.1825E+01
 -14.463  0.2607E+00  0.1828E+01
 -14.453  0.2572E+00  0.1831E+01
 -14.443  0.2538E+00  0.1833E+01
 -14.433  0.2504E+00  0.1836E+01
 -14.423  0.2470E+00  0.1838E+01
 -14.413  0.2436E+00  0.1841E+01
 -14.403  0.2402E+00  0.1843E+01
 -14.393  0.2368E+00  0.1845E+01
 -14.383  0.2334E+00  0.1848E+01
 -14.373  0.2300E+00  0.1850E+01
 -14.363  0.2266E+00  0.1852E+01
 -14.353  0.2231E+00  0.1855E+01
 -14.343  0.2197E+00  0.1857E+01
 -14.333  0.2163E+00  0.1859E+01
 -14.323  0.2129E+00  0.1861E+01
 -14.313  0.2095E+00  0.1863E+01
 -14.303  0.2067E+00  0.1865E+01
 -14.293  0.2039E+00  0.1867E+01
 -14.283  0.2011E+00  0.1869E+01
 -14.273  0.1986E+00  0.1871E+01
 -14.263  0.1963E+00  0.1873E+01
 -14.253  0.2065E+00  0.1875E+01
 -14.243  0.2300E+00  0.1878E+01
 -14.233  0.2565E+00  0.1880E+01
 -14.223  0.2854E+00  0.1883E+01
 -14.213  0.3143E+00  0.1886E+01
 -14.203  0.1992E+00  0.1889E+01
 -14.193  0.1967E+00  0.1891E+01
 -14.183  0.1941E+00  0.1893E+01
 -14.173  0.1916E+00  0.1895E+01
 -14.163  0.1890E+00  0.1897E+01
 -14.153  0.1864E+00  0.1898E+01
 -14.143  0.1839E+00  0.1900E+01
 -14.133  0.1813E+00  0.1902E+01
 -14.123  0.1787E+00  0.1904E+01
 -14.113  0.1762E+00  0.1906E+01
 -14.103  0.1736E+00  0.1907E+01
 -14.093  0.1711E+00  0.1909E+01
 -14.083  0.1685E+00  0.1911E+01
 -14.073  0.1659E+00  0.1913E+01
 -14.063  0.1634E+00  0.1914E+01
 -14.053  0.1608E+00  0.1916E+01
 -14.043  0.1583E+00  0.1917E+01
 -14.033  0.1557E+00  0.1919E+01
 -14.023  0.1531E+00  0.1920E+01
 -14.013  0.1506E+00  0.1922E+01
 -14.003  0.1480E+00  0.1923E+01
 -13.993  0.1454E+00  0.1925E+01
 -13.983  0.1429E+00  0.1926E+01
 -13.973  0.1403E+00  0.1928E+01
 -13.963  0.1378E+00  0.1929E+01
 -13.953  0.1352E+00  0.1931E+01
 -13.943  0.1326E+00  0.1932E+01
 -13.933  0.1304E+00  0.1933E+01
 -13.923  0.1344E+00  0.1935E+01
 -13.913  0.1383E+00  0.1936E+01
 -13.903  0.1423E+00  0.1937E+01
 -13.893  0.1539E+00  0.1939E+01
 -13.883  0.1680E+00  0.1940E+01
 -13.873  0.1822E+00  0.1942E+01
 -13.863  0.1963E+00  0.1944E+01
 -13.853  0.2105E+00  0.1946E+01
 -13.843  0.2480E+00  0.1948E+01
 -13.833  0.2919E+00  0.1951E+01
 -13.823  0.2826E+00  0.1954E+01
 -13.813  0.3292E+00  0.1957E+01
 -13.803  0.3671E+00  0.1960E+01
 -13.793  0.4050E+00  0.1964E+01
 -13.783  0.4429E+00  0.1968E+01
 -13.773  0.2718E+00  0.1972E+01
 -13.763  0.2746E+00  0.1975E+01
 -13.753  0.2775E+00  0.1978E+01
 -13.743  0.2803E+00  0.1981E+01
 -13.733  0.2832E+00  0.1983E+01
 -13.723  0.2860E+00  0.1986E+01
 -13.713  0.2889E+00  0.1989E+01
 -13.703  0.3136E+00  0.1992E+01
 -13.693  0.4909E+00  0.1996E+01
 -13.683  0.6683E+00  0.2002E+01
 -13.673  0.3087E+00  0.2006E+01
 -13.663  0.3083E+00  0.2009E+01
 -13.653  0.3079E+00  0.2013E+01
 -13.643  0.3075E+00  0.2016E+01
 -13.633  0.3071E+00  0.2019E+01
 -13.623  0.3068E+00  0.2022E+01
 -13.613  0.3064E+00  0.2025E+01
 -13.603  0.3060E+00  0.2028E+01
 -13.593  0.3056E+00  0.2031E+01
 -13.583  0.3053E+00  0.2034E+01
 -13.573  0.3049E+00  0.2037E+01
 -13.563  0.3045E+00  0.2040E+01
 -13.553  0.3041E+00  0.2043E+01
 -13.543  0.3038E+00  0.2046E+01
 -13.533  0.3040E+00  0.2049E+01
 -13.523  0.3042E+00  0.2052E+01
 -13.513  0.3060E+00  0.2055E+01
 -13.503  0.3096E+00  0.2058E+01
 -13.493  0.3136E+00  0.2062E+01
 -13.483  0.5866E+00  0.2067E+01
 -13.473  0.4183E+00  0.2072E+01
 -13.463  0.3251E+00  0.2075E+01
 -13.453  0.3274E+00  0.2079E+01
 -13.443  0.3297E+00  0.2082E+01
 -13.433  0.3319E+00  0.2085E+01
 -13.423  0.3342E+00  0.2088E+01
 -13.413  0.3365E+00  0.2092E+01
 -13.403  0.3388E+00  0.2095E+01
 -13.393  0.3410E+00  0.2099E+01
 -13.383  0.3433E+00  0.2102E+01
 -13.373  0.3042E+00  0.2105E+01
 -13.363  0.3037E+00  0.2108E+01
 -13.353  0.3037E+00  0.2111E+01
 -13.343  0.3048E+00  0.2114E+01
 -13.333  0.3059E+00  0.2117E+01
 -13.323  0.3071E+00  0.2120E+01
 -13.313  0.3082E+00  0.2123E+01
 -13.303  0.3093E+00  0.2127E+01
 -13.293  0.3104E+00  0.2130E+01
 -13.283  0.3115E+00  0.2133E+01
 -13.273  0.3126E+00  0.2136E+01
 -13.263  0.3137E+00  0.2139E+01
 -13.253  0.3148E+00  0.2142E+01
 -13.243  0.3159E+00  0.2145E+01
 -13.233  0.3172E+00  0.2148E+01
 -13.223  0.3184E+00  0.2152E+01
 -13.213  0.4349E+00  0.2155E+01
 -13.203  0.4108E+00  0.2160E+01
 -13.193  0.3866E+00  0.2164E+01
 -13.183  0.3625E+00  0.2167E+01
 -13.173  0.3383E+00  0.2171E+01
 -13.163  0.3141E+00  0.2174E+01
 -13.153  0.3102E+00  0.2177E+01
 -13.143  0.3090E+00  0.2180E+01
 -13.133  0.3078E+00  0.2183E+01
 -13.123  0.3083E+00  0.2187E+01
 -13.113  0.3094E+00  0.2190E+01
 -13.103  0.3105E+00  0.2193E+01
 -13.093  0.3115E+00  0.2196E+01
 -13.083  0.3126E+00  0.2199E+01
 -13.073  0.3137E+00  0.2202E+01
 -13.063  0.3148E+00  0.2205E+01
 -13.053  0.3159E+00  0.2208E+01
 -13.043  0.3170E+00  0.2212E+01
 -13.033  0.3181E+00  0.2215E+01
 -13.023  0.3192E+00  0.2218E+01
 -13.013  0.3203E+00  0.2221E+01
 -13.003  0.3243E+00  0.2224E+01
 -12.993  0.3295E+00  0.2228E+01
 -12.983  0.3347E+00  0.2231E+01
 -12.973  0.3399E+00  0.2234E+01
 -12.963  0.3452E+00  0.2238E+01
 -12.953  0.3506E+00  0.2241E+01
 -12.943  0.3561E+00  0.2245E+01
 -12.933  0.3615E+00  0.2248E+01
 -12.923  0.3669E+00  0.2252E+01
 -12.913  0.3724E+00  0.2256E+01
 -12.903  0.6182E+00  0.2260E+01
 -12.893  0.5400E+00  0.2266E+01
 -12.883  0.4617E+00  0.2271E+01
 -12.873  0.3999E+00  0.2275E+01
 -12.863  0.4094E+00  0.2279E+01
 -12.853  0.4189E+00  0.2283E+01
 -12.843  0.4284E+00  0.2288E+01
 -12.833  0.4397E+00  0.2292E+01
 -12.823  0.4521E+00  0.2296E+01
 -12.813  0.4644E+00  0.2301E+01
 -12.803  0.4767E+00  0.2306E+01
 -12.793  0.4890E+00  0.2310E+01
 -12.783  0.5013E+00  0.2315E+01
 -12.773  0.5136E+00  0.2320E+01
 -12.763  0.5259E+00  0.2326E+01
 -12.753  0.5383E+00  0.2331E+01
 -12.743  0.4208E+00  0.2336E+01
 -12.733  0.4181E+00  0.2340E+01
 -12.723  0.4153E+00  0.2344E+01
 -12.713  0.4127E+00  0.2348E+01
 -12.703  0.4102E+00  0.2352E+01
 -12.693  0.4078E+00  0.2356E+01
 -12.683  0.4053E+00  0.2360E+01
 -12.673  0.4028E+00  0.2364E+01
 -12.663  0.4004E+00  0.2368E+01
 -12.653  0.3979E+00  0.2372E+01
 -12.643  0.3954E+00  0.2376E+01
 -12.633  0.3930E+00  0.2380E+01
 -12.623  0.3905E+00  0.2384E+01
 -12.613  0.3881E+00  0.2388E+01
 -12.603  0.3856E+00  0.2392E+01
 -12.593  0.3831E+00  0.2396E+01
 -12.583  0.3807E+00  0.2400E+01
 -12.573  0.3786E+00  0.2403E+01
 -12.563  0.3766E+00  0.2407E+01
 -12.553  0.3747E+00  0.2411E+01
 -12.543  0.3727E+00  0.2415E+01
 -12.533  0.3708E+00  0.2418E+01
 -12.523  0.3689E+00  0.2422E+01
 -12.513  0.3670E+00  0.2426E+01
 -12.503  0.3651E+00  0.2429E+01
 -12.493  0.3632E+00  0.2433E+01
 -12.483  0.3613E+00  0.2437E+01
 -12.473  0.3594E+00  0.2440E+01
 -12.463  0.3575E+00  0.2444E+01
 -12.453  0.3556E+00  0.2447E+01
 -12.443  0.3537E+00  0.2451E+01
 -12.433  0.3518E+00  0.2454E+01
 -12.423  0.3498E+00  0.2458E+01
 -12.413  0.3478E+00  0.2461E+01
 -12.403  0.3472E+00  0.2465E+01
 -12.393  0.3465E+00  0.2468E+01
 -12.383  0.3459E+00  0.2472E+01
 -12.373  0.3452E+00  0.2475E+01
 -12.363  0.3446E+00  0.2479E+01
 -12.353  0.3439E+00  0.2482E+01
 -12.343  0.3433E+00  0.2486E+01
 -12.333  0.3426E+00  0.2489E+01
 -12.323  0.3420E+00  0.2493E+01
 -12.313  0.3414E+00  0.2496E+01
 -12.303  0.3407E+00  0.2499E+01
 -12.293  0.3401E+00  0.2503E+01
 -12.283  0.3394E+00  0.2506E+01
 -12.273  0.3387E+00  0.2510E+01
 -12.263  0.3380E+00  0.2513E+01
 -12.253  0.3373E+00  0.2516E+01
 -12.243  0.3366E+00  0.2520E+01
 -12.233  0.3359E+00  0.2523E+01
 -12.223  0.3352E+00  0.2526E+01
 -12.213  0.3345E+00  0.2530E+01
 -12.203  0.3338E+00  0.2533E+01
 -12.193  0.3332E+00  0.2536E+01
 -12.183  0.3325E+00  0.2540E+01
 -12.173  0.3318E+00  0.2543E+01
 -12.163  0.3311E+00  0.2546E+01
 -12.153  0.3304E+00  0.2550E+01
 -12.143  0.3297E+00  0.2553E+01
 -12.133  0.3290E+00  0.2556E+01
 -12.123  0.3188E+00  0.2559E+01
 -12.113  0.3185E+00  0.2563E+01
 -12.103  0.3182E+00  0.2566E+01
 -12.093  0.3179E+00  0.2569E+01
 -12.083  0.3176E+00  0.2572E+01
 -12.073  0.3173E+00  0.2575E+01
 -12.063  0.3170E+00  0.2579E+01
 -12.053  0.3167E+00  0.2582E+01
 -12.043  0.3164E+00  0.2585E+01
 -12.033  0.3162E+00  0.2588E+01
 -12.023  0.3159E+00  0.2591E+01
 -12.013  0.3156E+00  0.2594E+01
 -12.003  0.3153E+00  0.2598E+01
 -11.993  0.3150E+00  0.2601E+01
 -11.983  0.3147E+00  0.2604E+01
 -11.973  0.3144E+00  0.2607E+01
 -11.963  0.3141E+00  0.2610E+01
 -11.953  0.3138E+00  0.2613E+01
 -11.943  0.3135E+00  0.2616E+01
 -11.933  0.3133E+00  0.2620E+01
 -11.923  0.3130E+00  0.2623E+01
 -11.913  0.3127E+00  0.2626E+01
 -11.903  0.3119E+00  0.2629E+01
 -11.893  0.3109E+00  0.2632E+01
 -11.883  0.3099E+00  0.2635E+01
 -11.873  0.3089E+00  0.2638E+01
 -11.863  0.3079E+00  0.2641E+01
 -11.853  0.3069E+00  0.2644E+01
 -11.843  0.3059E+00  0.2647E+01
 -11.833  0.3049E+00  0.2651E+01
 -11.823  0.3039E+00  0.2654E+01
 -11.813  0.3029E+00  0.2657E+01
 -11.803  0.3019E+00  0.2660E+01
 -11.793  0.3010E+00  0.2663E+01
 -11.783  0.3000E+00  0.2666E+01
 -11.773  0.2990E+00  0.2669E+01
 -11.763  0.2980E+00  0.2672E+01
 -11.753  0.2970E+00  0.2675E+01
 -11.743  0.2960E+00  0.2678E+01
 -11.733  0.2950E+00  0.2680E+01
 -11.723  0.2945E+00  0.2683E+01
 -11.713  0.2943E+00  0.2686E+01
 -11.703  0.2941E+00  0.2689E+01
 -11.693  0.2937E+00  0.2692E+01
 -11.683  0.2933E+00  0.2695E+01
 -11.673  0.2929E+00  0.2698E+01
 -11.663  0.2925E+00  0.2701E+01
 -11.653  0.2921E+00  0.2704E+01
 -11.643  0.2918E+00  0.2707E+01
 -11.633  0.2914E+00  0.2710E+01
 -11.623  0.2910E+00  0.2713E+01
 -11.613  0.2906E+00  0.2716E+01
 -11.603  0.2902E+00  0.2719E+01
 -11.593  0.2898E+00  0.2721E+01
 -11.583  0.2894E+00  0.2724E+01
 -11.573  0.2890E+00  0.2727E+01
 -11.563  0.2887E+00  0.2730E+01
 -11.553  0.2883E+00  0.2733E+01
 -11.543  0.2879E+00  0.2736E+01
 -11.533  0.2875E+00  0.2739E+01
 -11.523  0.2871E+00  0.2742E+01
 -11.513  0.2867E+00  0.2745E+01
 -11.503  0.2863E+00  0.2747E+01
 -11.493  0.2859E+00  0.2750E+01
 -11.483  0.2854E+00  0.2753E+01
 -11.473  0.2849E+00  0.2756E+01
 -11.463  0.2845E+00  0.2759E+01
 -11.453  0.2840E+00  0.2762E+01
 -11.443  0.2835E+00  0.2764E+01
 -11.433  0.2830E+00  0.2767E+01
 -11.423  0.2826E+00  0.2770E+01
 -11.413  0.2821E+00  0.2773E+01
 -11.403  0.2740E+00  0.2776E+01
 -11.393  0.2738E+00  0.2779E+01
 -11.383  0.2736E+00  0.2781E+01
 -11.373  0.2734E+00  0.2784E+01
 -11.363  0.2759E+00  0.2787E+01
 -11.353  0.2842E+00  0.2790E+01
 -11.343  0.2924E+00  0.2792E+01
 -11.333  0.3007E+00  0.2795E+01
 -11.323  0.3089E+00  0.2798E+01
 -11.313  0.3172E+00  0.2802E+01
 -11.303  0.3254E+00  0.2805E+01
 -11.293  0.3337E+00  0.2808E+01
 -11.283  0.3419E+00  0.2811E+01
 -11.273  0.3502E+00  0.2815E+01
 -11.263  0.3584E+00  0.2818E+01
 -11.253  0.3666E+00  0.2822E+01
 -11.243  0.3748E+00  0.2826E+01
 -11.233  0.3830E+00  0.2830E+01
 -11.223  0.3912E+00  0.2833E+01
 -11.213  0.3501E+00  0.2837E+01
 -11.203  0.3503E+00  0.2841E+01
 -11.193  0.3506E+00  0.2844E+01
 -11.183  0.3508E+00  0.2848E+01
 -11.173  0.3511E+00  0.2851E+01
 -11.163  0.3513E+00  0.2855E+01
 -11.153  0.3516E+00  0.2858E+01
 -11.143  0.3518E+00  0.2862E+01
 -11.133  0.3521E+00  0.2865E+01
 -11.123  0.3519E+00  0.2869E+01
 -11.113  0.3516E+00  0.2872E+01
 -11.103  0.3513E+00  0.2876E+01
 -11.093  0.3510E+00  0.2879E+01
 -11.083  0.3507E+00  0.2883E+01
 -11.073  0.3504E+00  0.2886E+01
 -11.063  0.3501E+00  0.2890E+01
 -11.053  0.3498E+00  0.2893E+01
 -11.043  0.3495E+00  0.2897E+01
 -11.033  0.3498E+00  0.2900E+01
 -11.023  0.3506E+00  0.2904E+01
 -11.013  0.3514E+00  0.2907E+01
 -11.003  0.3521E+00  0.2911E+01
 -10.993  0.3528E+00  0.2914E+01
 -10.983  0.3536E+00  0.2918E+01
 -10.973  0.3543E+00  0.2921E+01
 -10.963  0.3551E+00  0.2925E+01
 -10.953  0.3562E+00  0.2929E+01
 -10.943  0.3576E+00  0.2932E+01
 -10.933  0.3590E+00  0.2936E+01
 -10.923  0.3604E+00  0.2939E+01
 -10.913  0.3618E+00  0.2943E+01
 -10.903  0.3632E+00  0.2947E+01
 -10.893  0.3647E+00  0.2950E+01
 -10.883  0.3645E+00  0.2954E+01
 -10.873  0.3635E+00  0.2957E+01
 -10.863  0.3622E+00  0.2961E+01
 -10.853  0.3610E+00  0.2965E+01
 -10.843  0.3597E+00  0.2968E+01
 -10.833  0.3593E+00  0.2972E+01
 -10.823  0.3591E+00  0.2975E+01
 -10.813  0.3589E+00  0.2979E+01
 -10.803  0.3587E+00  0.2983E+01
 -10.793  0.3585E+00  0.2986E+01
 -10.783  0.3583E+00  0.2990E+01
 -10.773  0.3580E+00  0.2993E+01
 -10.763  0.3578E+00  0.2997E+01
 -10.753  0.3576E+00  0.3001E+01
 -10.743  0.3574E+00  0.3004E+01
 -10.733  0.3572E+00  0.3008E+01
 -10.723  0.3569E+00  0.3011E+01
 -10.713  0.3567E+00  0.3015E+01
 -10.703  0.3565E+00  0.3018E+01
 -10.693  0.3563E+00  0.3022E+01
 -10.683  0.3624E+00  0.3026E+01
 -10.673  0.3627E+00  0.3029E+01
 -10.663  0.3630E+00  0.3033E+01
 -10.653  0.3632E+00  0.3036E+01
 -10.643  0.3635E+00  0.3040E+01
 -10.633  0.3638E+00  0.3044E+01
 -10.623  0.3641E+00  0.3047E+01
 -10.613  0.3644E+00  0.3051E+01
 -10.603  0.3646E+00  0.3055E+01
 -10.593  0.3648E+00  0.3058E+01
 -10.583  0.3595E+00  0.3062E+01
 -10.573  0.3599E+00  0.3066E+01
 -10.563  0.3603E+00  0.3069E+01
 -10.553  0.3608E+00  0.3073E+01
 -10.543  0.3612E+00  0.3076E+01
 -10.533  0.3616E+00  0.3080E+01
 -10.523  0.3621E+00  0.3084E+01
 -10.513  0.3625E+00  0.3087E+01
 -10.503  0.3630E+00  0.3091E+01
 -10.493  0.3634E+00  0.3094E+01
 -10.483  0.3638E+00  0.3098E+01
 -10.473  0.3643E+00  0.3102E+01
 -10.463  0.3647E+00  0.3105E+01
 -10.453  0.3651E+00  0.3109E+01
 -10.443  0.3656E+00  0.3113E+01
 -10.433  0.3660E+00  0.3116E+01
 -10.423  0.3664E+00  0.3120E+01
 -10.413  0.3669E+00  0.3124E+01
 -10.403  0.3658E+00  0.3127E+01
 -10.393  0.3663E+00  0.3131E+01
 -10.383  0.3668E+00  0.3135E+01
 -10.373  0.3673E+00  0.3138E+01
 -10.363  0.3678E+00  0.3142E+01
 -10.353  0.3683E+00  0.3146E+01
 -10.343  0.3688E+00  0.3149E+01
 -10.333  0.3693E+00  0.3153E+01
 -10.323  0.3698E+00  0.3157E+01
 -10.313  0.3702E+00  0.3160E+01
 -10.303  0.3707E+00  0.3164E+01
 -10.293  0.3712E+00  0.3168E+01
 -10.283  0.3717E+00  0.3172E+01
 -10.273  0.3722E+00  0.3175E+01
 -10.263  0.3725E+00  0.3179E+01
 -10.253  0.3725E+00  0.3183E+01
 -10.243  0.3726E+00  0.3186E+01
 -10.233  0.3726E+00  0.3190E+01
 -10.223  0.3727E+00  0.3194E+01
 -10.213  0.3727E+00  0.3198E+01
 -10.203  0.3725E+00  0.3201E+01
 -10.193  0.3722E+00  0.3205E+01
 -10.183  0.3719E+00  0.3209E+01
 -10.173  0.3716E+00  0.3213E+01
 -10.163  0.3713E+00  0.3216E+01
 -10.153  0.3710E+00  0.3220E+01
 -10.143  0.3707E+00  0.3224E+01
 -10.133  0.3704E+00  0.3227E+01
 -10.123  0.3701E+00  0.3231E+01
 -10.113  0.3698E+00  0.3235E+01
 -10.103  0.3699E+00  0.3238E+01
 -10.093  0.3702E+00  0.3242E+01
 -10.083  0.3704E+00  0.3246E+01
 -10.073  0.3706E+00  0.3250E+01
 -10.063  0.3709E+00  0.3253E+01
 -10.053  0.3711E+00  0.3257E+01
 -10.043  0.3714E+00  0.3261E+01
 -10.033  0.3716E+00  0.3264E+01
 -10.023  0.3718E+00  0.3268E+01
 -10.013  0.3720E+00  0.3272E+01
 -10.003  0.3723E+00  0.3276E+01
  -9.993  0.3725E+00  0.3279E+01
  -9.983  0.3727E+00  0.3283E+01
  -9.973  0.3781E+00  0.3287E+01
  -9.963  0.3786E+00  0.3291E+01
  -9.953  0.3789E+00  0.3294E+01
  -9.943  0.3792E+00  0.3298E+01
  -9.933  0.3795E+00  0.3302E+01
  -9.923  0.3799E+00  0.3306E+01
  -9.913  0.3802E+00  0.3310E+01
  -9.903  0.3805E+00  0.3313E+01
  -9.893  0.3808E+00  0.3317E+01
  -9.883  0.3811E+00  0.3321E+01
  -9.873  0.3815E+00  0.3325E+01
  -9.863  0.3817E+00  0.3329E+01
  -9.853  0.3820E+00  0.3332E+01
  -9.843  0.3823E+00  0.3336E+01
  -9.833  0.3825E+00  0.3340E+01
  -9.823  0.3828E+00  0.3344E+01
  -9.813  0.3830E+00  0.3348E+01
  -9.803  0.3833E+00  0.3352E+01
  -9.793  0.3835E+00  0.3355E+01
  -9.783  0.3837E+00  0.3359E+01
  -9.773  0.3839E+00  0.3363E+01
  -9.763  0.3841E+00  0.3367E+01
  -9.753  0.3842E+00  0.3371E+01
  -9.743  0.3844E+00  0.3375E+01
  -9.733  0.3846E+00  0.3378E+01
  -9.723  0.3848E+00  0.3382E+01
  -9.713  0.3849E+00  0.3386E+01
  -9.703  0.3851E+00  0.3390E+01
  -9.693  0.3811E+00  0.3394E+01
  -9.683  0.3814E+00  0.3398E+01
  -9.673  0.3818E+00  0.3401E+01
  -9.663  0.3822E+00  0.3405E+01
  -9.653  0.3824E+00  0.3409E+01
  -9.643  0.3826E+00  0.3413E+01
  -9.633  0.3830E+00  0.3417E+01
  -9.623  0.3836E+00  0.3421E+01
  -9.613  0.3842E+00  0.3424E+01
  -9.603  0.3848E+00  0.3428E+01
  -9.593  0.3854E+00  0.3432E+01
  -9.583  0.3861E+00  0.3436E+01
  -9.573  0.3867E+00  0.3440E+01
  -9.563  0.3873E+00  0.3444E+01
  -9.553  0.3879E+00  0.3448E+01
  -9.543  0.3885E+00  0.3451E+01
  -9.533  0.3891E+00  0.3455E+01
  -9.523  0.3898E+00  0.3459E+01
  -9.513  0.3904E+00  0.3463E+01
  -9.503  0.3910E+00  0.3467E+01
  -9.493  0.3916E+00  0.3471E+01
  -9.483  0.3922E+00  0.3475E+01
  -9.473  0.3928E+00  0.3479E+01
  -9.463  0.3934E+00  0.3483E+01
  -9.453  0.3937E+00  0.3487E+01
  -9.443  0.3939E+00  0.3491E+01
  -9.433  0.3942E+00  0.3495E+01
  -9.423  0.3945E+00  0.3498E+01
  -9.413  0.3947E+00  0.3502E+01
  -9.403  0.3950E+00  0.3506E+01
  -9.393  0.3953E+00  0.3510E+01
  -9.383  0.3955E+00  0.3514E+01
  -9.373  0.3958E+00  0.3518E+01
  -9.363  0.3960E+00  0.3522E+01
  -9.353  0.3971E+00  0.3526E+01
  -9.343  0.3977E+00  0.3530E+01
  -9.333  0.3983E+00  0.3534E+01
  -9.323  0.3985E+00  0.3538E+01
  -9.313  0.3987E+00  0.3542E+01
  -9.303  0.3987E+00  0.3546E+01
  -9.293  0.3987E+00  0.3550E+01
  -9.283  0.3986E+00  0.3554E+01
  -9.273  0.3986E+00  0.3558E+01
  -9.263  0.3986E+00  0.3562E+01
  -9.253  0.3986E+00  0.3566E+01
  -9.243  0.3986E+00  0.3570E+01
  -9.233  0.3985E+00  0.3574E+01
  -9.223  0.3985E+00  0.3578E+01
  -9.213  0.3984E+00  0.3582E+01
  -9.203  0.3983E+00  0.3586E+01
  -9.193  0.3981E+00  0.3590E+01
  -9.183  0.3984E+00  0.3594E+01
  -9.173  0.4028E+00  0.3598E+01
  -9.163  0.4033E+00  0.3602E+01
  -9.153  0.4039E+00  0.3606E+01
  -9.143  0.4044E+00  0.3610E+01
  -9.133  0.4049E+00  0.3614E+01
  -9.123  0.4054E+00  0.3618E+01
  -9.113  0.4060E+00  0.3622E+01
  -9.103  0.4065E+00  0.3626E+01
  -9.093  0.4070E+00  0.3630E+01
  -9.083  0.4075E+00  0.3634E+01
  -9.073  0.4079E+00  0.3638E+01
  -9.063  0.4084E+00  0.3643E+01
  -9.053  0.4088E+00  0.3647E+01
  -9.043  0.4092E+00  0.3651E+01
  -9.033  0.4097E+00  0.3655E+01
  -9.023  0.4101E+00  0.3659E+01
  -9.013  0.4105E+00  0.3663E+01
  -9.003  0.4110E+00  0.3667E+01
  -8.993  0.4114E+00  0.3671E+01
  -8.983  0.4118E+00  0.3675E+01
  -8.973  0.4121E+00  0.3679E+01
  -8.963  0.4124E+00  0.3684E+01
  -8.953  0.4127E+00  0.3688E+01
  -8.943  0.4130E+00  0.3692E+01
  -8.933  0.4132E+00  0.3696E+01
  -8.923  0.4135E+00  0.3700E+01
  -8.913  0.4138E+00  0.3704E+01
  -8.903  0.4141E+00  0.3708E+01
  -8.893  0.4143E+00  0.3713E+01
  -8.883  0.4144E+00  0.3717E+01
  -8.873  0.4146E+00  0.3721E+01
  -8.863  0.4147E+00  0.3725E+01
  -8.853  0.4149E+00  0.3729E+01
  -8.843  0.4150E+00  0.3733E+01
  -8.833  0.4163E+00  0.3737E+01
  -8.823  0.4179E+00  0.3742E+01
  -8.813  0.4187E+00  0.3746E+01
  -8.803  0.4193E+00  0.3750E+01
  -8.793  0.4202E+00  0.3754E+01
  -8.783  0.4212E+00  0.3758E+01
  -8.773  0.4222E+00  0.3763E+01
  -8.763  0.4232E+00  0.3767E+01
  -8.753  0.4241E+00  0.3771E+01
  -8.743  0.4249E+00  0.3775E+01
  -8.733  0.4226E+00  0.3779E+01
  -8.723  0.4236E+00  0.3784E+01
  -8.713  0.4246E+00  0.3788E+01
  -8.703  0.4256E+00  0.3792E+01
  -8.693  0.4265E+00  0.3796E+01
  -8.683  0.4275E+00  0.3801E+01
  -8.673  0.4285E+00  0.3805E+01
  -8.663  0.4295E+00  0.3809E+01
  -8.653  0.4304E+00  0.3814E+01
  -8.643  0.4311E+00  0.3818E+01
  -8.633  0.4317E+00  0.3822E+01
  -8.623  0.4322E+00  0.3827E+01
  -8.613  0.4326E+00  0.3831E+01
  -8.603  0.4331E+00  0.3835E+01
  -8.593  0.4336E+00  0.3840E+01
  -8.583  0.4340E+00  0.3844E+01
  -8.573  0.4345E+00  0.3848E+01
  -8.563  0.4350E+00  0.3853E+01
  -8.553  0.4355E+00  0.3857E+01
  -8.543  0.4359E+00  0.3861E+01
  -8.533  0.4364E+00  0.3866E+01
  -8.523  0.4369E+00  0.3870E+01
  -8.513  0.4374E+00  0.3874E+01
  -8.503  0.4378E+00  0.3879E+01
  -8.493  0.4382E+00  0.3883E+01
  -8.483  0.4386E+00  0.3888E+01
  -8.473  0.4389E+00  0.3892E+01
  -8.463  0.4393E+00  0.3896E+01
  -8.453  0.4397E+00  0.3901E+01
  -8.443  0.4401E+00  0.3905E+01
  -8.433  0.4405E+00  0.3909E+01
  -8.423  0.4409E+00  0.3914E+01
  -8.413  0.4413E+00  0.3918E+01
  -8.403  0.4417E+00  0.3923E+01
  -8.393  0.4421E+00  0.3927E+01
  -8.383  0.4425E+00  0.3932E+01
  -8.373  0.4531E+00  0.3936E+01
  -8.363  0.6352E+00  0.3941E+01
  -8.353  0.8173E+00  0.3949E+01
  -8.343  0.6648E+00  0.3956E+01
  -8.333  0.6816E+00  0.3962E+01
  -8.323  0.7014E+00  0.3969E+01
  -8.313  0.7181E+00  0.3976E+01
  -8.303  0.7243E+00  0.3984E+01
  -8.293  0.7060E+00  0.3991E+01
  -8.283  0.6889E+00  0.3998E+01
  -8.273  0.6950E+00  0.4005E+01
  -8.263  0.7011E+00  0.4012E+01
  -8.253  0.7072E+00  0.4019E+01
  -8.243  0.7132E+00  0.4026E+01
  -8.233  0.7193E+00  0.4033E+01
  -8.223  0.7252E+00  0.4040E+01
  -8.213  0.7087E+00  0.4047E+01
  -8.203  0.7084E+00  0.4054E+01
  -8.193  0.7081E+00  0.4062E+01
  -8.183  0.7079E+00  0.4069E+01
  -8.173  0.7076E+00  0.4076E+01
  -8.163  0.7105E+00  0.4083E+01
  -8.153  0.7141E+00  0.4090E+01
  -8.143  0.7177E+00  0.4097E+01
  -8.133  0.7214E+00  0.4104E+01
  -8.123  0.7250E+00  0.4112E+01
  -8.113  0.7286E+00  0.4119E+01
  -8.103  0.7314E+00  0.4126E+01
  -8.093  0.7252E+00  0.4133E+01
  -8.083  0.7190E+00  0.4141E+01
  -8.073  0.7188E+00  0.4148E+01
  -8.063  0.7200E+00  0.4155E+01
  -8.053  0.7211E+00  0.4162E+01
  -8.043  0.7223E+00  0.4169E+01
  -8.033  0.7235E+00  0.4177E+01
  -8.023  0.7246E+00  0.4184E+01
  -8.013  0.7259E+00  0.4191E+01
  -8.003  0.7282E+00  0.4198E+01
  -7.993  0.7305E+00  0.4206E+01
  -7.983  0.7328E+00  0.4213E+01
  -7.973  0.7351E+00  0.4220E+01
  -7.963  0.7374E+00  0.4228E+01
  -7.953  0.7397E+00  0.4235E+01
  -7.943  0.7334E+00  0.4242E+01
  -7.933  0.7326E+00  0.4250E+01
  -7.923  0.7318E+00  0.4257E+01
  -7.913  0.7310E+00  0.4264E+01
  -7.903  0.7334E+00  0.4272E+01
  -7.893  0.7393E+00  0.4279E+01
  -7.883  0.7432E+00  0.4287E+01
  -7.873  0.7462E+00  0.4294E+01
  -7.863  0.7492E+00  0.4301E+01
  -7.853  0.7522E+00  0.4309E+01
  -7.843  0.7552E+00  0.4316E+01
  -7.833  0.7582E+00  0.4324E+01
  -7.823  0.7606E+00  0.4332E+01
  -7.813  0.7630E+00  0.4339E+01
  -7.803  0.7658E+00  0.4347E+01
  -7.793  0.7687E+00  0.4355E+01
  -7.783  0.7713E+00  0.4362E+01
  -7.773  0.7738E+00  0.4370E+01
  -7.763  0.7739E+00  0.4378E+01
  -7.753  0.7720E+00  0.4385E+01
  -7.743  0.7710E+00  0.4393E+01
  -7.733  0.7696E+00  0.4401E+01
  -7.723  0.7706E+00  0.4409E+01
  -7.713  0.7716E+00  0.4416E+01
  -7.703  0.7727E+00  0.4424E+01
  -7.693  0.7737E+00  0.4432E+01
  -7.683  0.7747E+00  0.4439E+01
  -7.673  0.7762E+00  0.4447E+01
  -7.663  0.7780E+00  0.4455E+01
  -7.653  0.7798E+00  0.4463E+01
  -7.643  0.7815E+00  0.4471E+01
  -7.633  0.7833E+00  0.4478E+01
  -7.623  0.7851E+00  0.4486E+01
  -7.613  0.7868E+00  0.4494E+01
  -7.603  0.7886E+00  0.4502E+01
  -7.593  0.7902E+00  0.4510E+01
  -7.583  0.7918E+00  0.4518E+01
  -7.573  0.7934E+00  0.4526E+01
  -7.563  0.7953E+00  0.4534E+01
  -7.553  0.7973E+00  0.4542E+01
  -7.543  0.7952E+00  0.4550E+01
  -7.533  0.7965E+00  0.4558E+01
  -7.523  0.8098E+00  0.4566E+01
  -7.513  0.8156E+00  0.4574E+01
  -7.503  0.8213E+00  0.4582E+01
  -7.493  0.8278E+00  0.4590E+01
  -7.483  0.8322E+00  0.4598E+01
  -7.473  0.8365E+00  0.4607E+01
  -7.463  0.8408E+00  0.4615E+01
  -7.453  0.8452E+00  0.4624E+01
  -7.443  0.8495E+00  0.4632E+01
  -7.433  0.8538E+00  0.4641E+01
  -7.423  0.8609E+00  0.4649E+01
  -7.413  0.8650E+00  0.4658E+01
  -7.403  0.8689E+00  0.4667E+01
  -7.393  0.8729E+00  0.4675E+01
  -7.383  0.8768E+00  0.4684E+01
  -7.373  0.8808E+00  0.4693E+01
  -7.363  0.8847E+00  0.4702E+01
  -7.353  0.8887E+00  0.4710E+01
  -7.343  0.8927E+00  0.4719E+01
  -7.333  0.8966E+00  0.4728E+01
  -7.323  0.9006E+00  0.4737E+01
  -7.313  0.9045E+00  0.4746E+01
  -7.303  0.9087E+00  0.4755E+01
  -7.293  0.9134E+00  0.4765E+01
  -7.283  0.9180E+00  0.4774E+01
  -7.273  0.9301E+00  0.4783E+01
  -7.263  0.9434E+00  0.4792E+01
  -7.253  0.9568E+00  0.4802E+01
  -7.243  0.9850E+00  0.4811E+01
  -7.233  0.1021E+01  0.4821E+01
  -7.223  0.1044E+01  0.4832E+01
  -7.213  0.1095E+01  0.4842E+01
  -7.203  0.1239E+01  0.4854E+01
  -7.193  0.1324E+01  0.4867E+01
  -7.183  0.1305E+01  0.4880E+01
  -7.173  0.1273E+01  0.4893E+01
  -7.163  0.1219E+01  0.4906E+01
  -7.153  0.1166E+01  0.4918E+01
  -7.143  0.1113E+01  0.4929E+01
  -7.133  0.1059E+01  0.4940E+01
  -7.123  0.1006E+01  0.4950E+01
  -7.113  0.9521E+00  0.4960E+01
  -7.103  0.9143E+00  0.4969E+01
  -7.093  0.9137E+00  0.4978E+01
  -7.083  0.9132E+00  0.4987E+01
  -7.073  0.9113E+00  0.4997E+01
  -7.063  0.1033E+01  0.5006E+01
  -7.053  0.1085E+01  0.5017E+01
  -7.043  0.1136E+01  0.5028E+01
  -7.033  0.1187E+01  0.5039E+01
  -7.023  0.1221E+01  0.5051E+01
  -7.013  0.1135E+01  0.5063E+01
  -7.003  0.1043E+01  0.5074E+01
  -6.993  0.8833E+00  0.5084E+01
  -6.983  0.7929E+00  0.5092E+01
  -6.973  0.7452E+00  0.5100E+01
  -6.963  0.7277E+00  0.5107E+01
  -6.953  0.7100E+00  0.5114E+01
  -6.943  0.6816E+00  0.5121E+01
  -6.933  0.6551E+00  0.5128E+01
  -6.923  0.6603E+00  0.5135E+01
  -6.913  0.6656E+00  0.5141E+01
  -6.903  0.6704E+00  0.5148E+01
  -6.893  0.7360E+00  0.5155E+01
  -6.883  0.8263E+00  0.5163E+01
  -6.873  0.8747E+00  0.5171E+01
  -6.863  0.9230E+00  0.5180E+01
  -6.853  0.9714E+00  0.5190E+01
  -6.843  0.1020E+01  0.5200E+01
  -6.833  0.1049E+01  0.5210E+01
  -6.823  0.1074E+01  0.5221E+01
  -6.813  0.1050E+01  0.5231E+01
  -6.803  0.1025E+01  0.5242E+01
  -6.793  0.9999E+00  0.5252E+01
  -6.783  0.9747E+00  0.5262E+01
  -6.773  0.9492E+00  0.5271E+01
  -6.763  0.9237E+00  0.5280E+01
  -6.753  0.9106E+00  0.5290E+01
  -6.743  0.9127E+00  0.5299E+01
  -6.733  0.9147E+00  0.5308E+01
  -6.723  0.9167E+00  0.5317E+01
  -6.713  0.9188E+00  0.5326E+01
  -6.703  0.1690E+01  0.5345E+01
  -6.693  0.1055E+01  0.5359E+01
  -6.683  0.9407E+00  0.5369E+01
  -6.673  0.9347E+00  0.5378E+01
  -6.663  0.9287E+00  0.5387E+01
  -6.653  0.9227E+00  0.5397E+01
  -6.643  0.9167E+00  0.5406E+01
  -6.633  0.9107E+00  0.5415E+01
  -6.623  0.9049E+00  0.5424E+01
  -6.613  0.8995E+00  0.5433E+01
  -6.603  0.8940E+00  0.5442E+01
  -6.593  0.8886E+00  0.5451E+01
  -6.583  0.8827E+00  0.5460E+01
  -6.573  0.8767E+00  0.5468E+01
  -6.563  0.8708E+00  0.5477E+01
  -6.553  0.8648E+00  0.5486E+01
  -6.543  0.8577E+00  0.5495E+01
  -6.533  0.7717E+00  0.5503E+01
  -6.523  0.7563E+00  0.5510E+01
  -6.513  0.7420E+00  0.5518E+01
  -6.503  0.7308E+00  0.5525E+01
  -6.493  0.7200E+00  0.5532E+01
  -6.483  0.7091E+00  0.5539E+01
  -6.473  0.6983E+00  0.5546E+01
  -6.463  0.6876E+00  0.5553E+01
  -6.453  0.6771E+00  0.5560E+01
  -6.443  0.6666E+00  0.5567E+01
  -6.433  0.6561E+00  0.5574E+01
  -6.423  0.6456E+00  0.5580E+01
  -6.413  0.6351E+00  0.5586E+01
  -6.403  0.6246E+00  0.5593E+01
  -6.393  0.6153E+00  0.5599E+01
  -6.383  0.6069E+00  0.5605E+01
  -6.373  0.5984E+00  0.5611E+01
  -6.363  0.6663E+00  0.5617E+01
  -6.353  0.6858E+00  0.5624E+01
  -6.343  0.7045E+00  0.5631E+01
  -6.333  0.7232E+00  0.5638E+01
  -6.323  0.7386E+00  0.5646E+01
  -6.313  0.7409E+00  0.5653E+01
  -6.303  0.7433E+00  0.5660E+01
  -6.293  0.7474E+00  0.5668E+01
  -6.283  0.7514E+00  0.5675E+01
  -6.273  0.7555E+00  0.5683E+01
  -6.263  0.7595E+00  0.5690E+01
  -6.253  0.7633E+00  0.5698E+01
  -6.243  0.7671E+00  0.5706E+01
  -6.233  0.7694E+00  0.5713E+01
  -6.223  0.7699E+00  0.5721E+01
  -6.213  0.7694E+00  0.5729E+01
  -6.203  0.7689E+00  0.5736E+01
  -6.193  0.7684E+00  0.5744E+01
  -6.183  0.7678E+00  0.5752E+01
  -6.173  0.7827E+00  0.5760E+01
  -6.163  0.8067E+00  0.5767E+01
  -6.153  0.8308E+00  0.5776E+01
  -6.143  0.8549E+00  0.5784E+01
  -6.133  0.8790E+00  0.5793E+01
  -6.123  0.8771E+00  0.5802E+01
  -6.113  0.8288E+00  0.5810E+01
  -6.103  0.7659E+00  0.5818E+01
  -6.093  0.7028E+00  0.5825E+01
  -6.083  0.6397E+00  0.5832E+01
  -6.073  0.5766E+00  0.5838E+01
  -6.063  0.5135E+00  0.5844E+01
  -6.053  0.5170E+00  0.5849E+01
  -6.043  0.5244E+00  0.5854E+01
  -6.033  0.5319E+00  0.5859E+01
  -6.023  0.5393E+00  0.5865E+01
  -6.013  0.5468E+00  0.5870E+01
  -6.003  0.5541E+00  0.5876E+01
  -5.993  0.5606E+00  0.5881E+01
  -5.983  0.5670E+00  0.5887E+01
  -5.973  0.5742E+00  0.5893E+01
  -5.963  0.5813E+00  0.5898E+01
  -5.953  0.5884E+00  0.5904E+01
  -5.943  0.6041E+00  0.5910E+01
  -5.933  0.6310E+00  0.5916E+01
  -5.923  0.6580E+00  0.5923E+01
  -5.913  0.6855E+00  0.5929E+01
  -5.903  0.7130E+00  0.5936E+01
  -5.893  0.7406E+00  0.5944E+01
  -5.883  0.7681E+00  0.5951E+01
  -5.873  0.7947E+00  0.5959E+01
  -5.863  0.7799E+00  0.5967E+01
  -5.853  0.7650E+00  0.5975E+01
  -5.843  0.7502E+00  0.5982E+01
  -5.833  0.7353E+00  0.5990E+01
  -5.823  0.7204E+00  0.5997E+01
  -5.813  0.7052E+00  0.6004E+01
  -5.803  0.6900E+00  0.6011E+01
  -5.793  0.6773E+00  0.6018E+01
  -5.783  0.6714E+00  0.6025E+01
  -5.773  0.6655E+00  0.6031E+01
  -5.763  0.6596E+00  0.6038E+01
  -5.753  0.6537E+00  0.6045E+01
  -5.743  0.6478E+00  0.6051E+01
  -5.733  0.6449E+00  0.6057E+01
  -5.723  0.6436E+00  0.6064E+01
  -5.713  0.6424E+00  0.6070E+01
  -5.703  0.6412E+00  0.6077E+01
  -5.693  0.6399E+00  0.6083E+01
  -5.683  0.6403E+00  0.6090E+01
  -5.673  0.6395E+00  0.6096E+01
  -5.663  0.6389E+00  0.6102E+01
  -5.653  0.6383E+00  0.6109E+01
  -5.643  0.6377E+00  0.6115E+01
  -5.633  0.6371E+00  0.6121E+01
  -5.623  0.6365E+00  0.6128E+01
  -5.613  0.6359E+00  0.6134E+01
  -5.603  0.6344E+00  0.6141E+01
  -5.593  0.6333E+00  0.6147E+01
  -5.583  0.6320E+00  0.6153E+01
  -5.573  0.6307E+00  0.6160E+01
  -5.563  0.6294E+00  0.6166E+01
  -5.553  0.6283E+00  0.6172E+01
  -5.543  0.6272E+00  0.6178E+01
  -5.533  0.6261E+00  0.6185E+01
  -5.523  0.6251E+00  0.6191E+01
  -5.513  0.6238E+00  0.6197E+01
  -5.503  0.6225E+00  0.6203E+01
  -5.493  0.6214E+00  0.6210E+01
  -5.483  0.6203E+00  0.6216E+01
  -5.473  0.6193E+00  0.6222E+01
  -5.463  0.6183E+00  0.6228E+01
  -5.453  0.6173E+00  0.6234E+01
  -5.443  0.6163E+00  0.6241E+01
  -5.433  0.6153E+00  0.6247E+01
  -5.423  0.6143E+00  0.6253E+01
  -5.413  0.6133E+00  0.6259E+01
  -5.403  0.6123E+00  0.6265E+01
  -5.393  0.6113E+00  0.6271E+01
  -5.383  0.6103E+00  0.6277E+01
  -5.373  0.6093E+00  0.6283E+01
  -5.363  0.6083E+00  0.6290E+01
  -5.353  0.6074E+00  0.6296E+01
  -5.343  0.6064E+00  0.6302E+01
  -5.333  0.6055E+00  0.6308E+01
  -5.323  0.6045E+00  0.6314E+01
  -5.313  0.6036E+00  0.6320E+01
  -5.303  0.6026E+00  0.6326E+01
  -5.293  0.6017E+00  0.6332E+01
  -5.283  0.6021E+00  0.6338E+01
  -5.273  0.6026E+00  0.6344E+01
  -5.263  0.6030E+00  0.6350E+01
  -5.253  0.6031E+00  0.6356E+01
  -5.243  0.6025E+00  0.6362E+01
  -5.233  0.6020E+00  0.6368E+01
  -5.223  0.6015E+00  0.6374E+01
  -5.213  0.6010E+00  0.6380E+01
  -5.203  0.6009E+00  0.6386E+01
  -5.193  0.6006E+00  0.6392E+01
  -5.183  0.5992E+00  0.6398E+01
  -5.173  0.5977E+00  0.6404E+01
  -5.163  0.5965E+00  0.6410E+01
  -5.153  0.5954E+00  0.6416E+01
  -5.143  0.5944E+00  0.6422E+01
  -5.133  0.5933E+00  0.6428E+01
  -5.123  0.5922E+00  0.6434E+01
  -5.113  0.5912E+00  0.6440E+01
  -5.103  0.5902E+00  0.6446E+01
  -5.093  0.5892E+00  0.6452E+01
  -5.083  0.5883E+00  0.6457E+01
  -5.073  0.5873E+00  0.6463E+01
  -5.063  0.5863E+00  0.6469E+01
  -5.053  0.5854E+00  0.6475E+01
  -5.043  0.5844E+00  0.6481E+01
  -5.033  0.5834E+00  0.6487E+01
  -5.023  0.5825E+00  0.6493E+01
  -5.013  0.5815E+00  0.6498E+01
  -5.003  0.5806E+00  0.6504E+01
  -4.993  0.5797E+00  0.6510E+01
  -4.983  0.5790E+00  0.6516E+01
  -4.973  0.5782E+00  0.6522E+01
  -4.963  0.5774E+00  0.6527E+01
  -4.953  0.5766E+00  0.6533E+01
  -4.943  0.5758E+00  0.6539E+01
  -4.933  0.5750E+00  0.6545E+01
  -4.923  0.5742E+00  0.6550E+01
  -4.913  0.5734E+00  0.6556E+01
  -4.903  0.5766E+00  0.6562E+01
  -4.893  0.5775E+00  0.6568E+01
  -4.883  0.5801E+00  0.6573E+01
  -4.873  0.5806E+00  0.6579E+01
  -4.863  0.5798E+00  0.6585E+01
  -4.853  0.5789E+00  0.6591E+01
  -4.843  0.5781E+00  0.6597E+01
  -4.833  0.5772E+00  0.6602E+01
  -4.823  0.5764E+00  0.6608E+01
  -4.813  0.5756E+00  0.6614E+01
  -4.803  0.5747E+00  0.6620E+01
  -4.793  0.5739E+00  0.6625E+01
  -4.783  0.5731E+00  0.6631E+01
  -4.773  0.5722E+00  0.6637E+01
  -4.763  0.5714E+00  0.6643E+01
  -4.753  0.5707E+00  0.6648E+01
  -4.743  0.5698E+00  0.6654E+01
  -4.733  0.5682E+00  0.6660E+01
  -4.723  0.5671E+00  0.6665E+01
  -4.713  0.5659E+00  0.6671E+01
  -4.703  0.5649E+00  0.6677E+01
  -4.693  0.5639E+00  0.6682E+01
  -4.683  0.5630E+00  0.6688E+01
  -4.673  0.5622E+00  0.6694E+01
  -4.663  0.5615E+00  0.6699E+01
  -4.653  0.5607E+00  0.6705E+01
  -4.643  0.5599E+00  0.6710E+01
  -4.633  0.5591E+00  0.6716E+01
  -4.623  0.5584E+00  0.6722E+01
  -4.613  0.5577E+00  0.6727E+01
  -4.603  0.5571E+00  0.6733E+01
  -4.593  0.5564E+00  0.6738E+01
  -4.583  0.5557E+00  0.6744E+01
  -4.573  0.5570E+00  0.6749E+01
  -4.563  0.5638E+00  0.6755E+01
  -4.553  0.5649E+00  0.6761E+01
  -4.543  0.5640E+00  0.6766E+01
  -4.533  0.5631E+00  0.6772E+01
  -4.523  0.5622E+00  0.6778E+01
  -4.513  0.5613E+00  0.6783E+01
  -4.503  0.5605E+00  0.6789E+01
  -4.493  0.5596E+00  0.6794E+01
  -4.483  0.5588E+00  0.6800E+01
  -4.473  0.5580E+00  0.6806E+01
  -4.463  0.5572E+00  0.6811E+01
  -4.453  0.5563E+00  0.6817E+01
  -4.443  0.5555E+00  0.6822E+01
  -4.433  0.5547E+00  0.6828E+01
  -4.423  0.5538E+00  0.6833E+01
  -4.413  0.5530E+00  0.6839E+01
  -4.403  0.5524E+00  0.6844E+01
  -4.393  0.5518E+00  0.6850E+01
  -4.383  0.5513E+00  0.6856E+01
  -4.373  0.5511E+00  0.6861E+01
  -4.363  0.5508E+00  0.6867E+01
  -4.353  0.5506E+00  0.6872E+01
  -4.343  0.5504E+00  0.6878E+01
  -4.333  0.5501E+00  0.6883E+01
  -4.323  0.5495E+00  0.6889E+01
  -4.313  0.5489E+00  0.6894E+01
  -4.303  0.5483E+00  0.6900E+01
  -4.293  0.5477E+00  0.6905E+01
  -4.283  0.5484E+00  0.6910E+01
  -4.273  0.5501E+00  0.6916E+01
  -4.263  0.5520E+00  0.6921E+01
  -4.253  0.5560E+00  0.6927E+01
  -4.243  0.5549E+00  0.6933E+01
  -4.233  0.5537E+00  0.6938E+01
  -4.223  0.5526E+00  0.6944E+01
  -4.213  0.5515E+00  0.6949E+01
  -4.203  0.5505E+00  0.6955E+01
  -4.193  0.5495E+00  0.6960E+01
  -4.183  0.5484E+00  0.6966E+01
  -4.173  0.5474E+00  0.6971E+01
  -4.163  0.5464E+00  0.6977E+01
  -4.153  0.5455E+00  0.6982E+01
  -4.143  0.5447E+00  0.6988E+01
  -4.133  0.5439E+00  0.6993E+01
  -4.123  0.5431E+00  0.6998E+01
  -4.113  0.5423E+00  0.7004E+01
  -4.103  0.5418E+00  0.7009E+01
  -4.093  0.5417E+00  0.7015E+01
  -4.083  0.5416E+00  0.7020E+01
  -4.073  0.5415E+00  0.7026E+01
  -4.063  0.5414E+00  0.7031E+01
  -4.053  0.5413E+00  0.7036E+01
  -4.043  0.5412E+00  0.7042E+01
  -4.033  0.5411E+00  0.7047E+01
  -4.023  0.5410E+00  0.7053E+01
  -4.013  0.5495E+00  0.7058E+01
  -4.003  0.5551E+00  0.7064E+01
  -3.993  0.5552E+00  0.7069E+01
  -3.983  0.5538E+00  0.7075E+01
  -3.973  0.5524E+00  0.7080E+01
  -3.963  0.5510E+00  0.7086E+01
  -3.953  0.5496E+00  0.7091E+01
  -3.943  0.5483E+00  0.7097E+01
  -3.933  0.5469E+00  0.7102E+01
  -3.923  0.5455E+00  0.7108E+01
  -3.913  0.5441E+00  0.7113E+01
  -3.903  0.5427E+00  0.7119E+01
  -3.893  0.5413E+00  0.7124E+01
  -3.883  0.5399E+00  0.7129E+01
  -3.873  0.5386E+00  0.7135E+01
  -3.863  0.5376E+00  0.7140E+01
  -3.853  0.5380E+00  0.7145E+01
  -3.843  0.5384E+00  0.7151E+01
  -3.833  0.5388E+00  0.7156E+01
  -3.823  0.5392E+00  0.7162E+01
  -3.813  0.5397E+00  0.7167E+01
  -3.803  0.5409E+00  0.7172E+01
  -3.793  0.5536E+00  0.7178E+01
  -3.783  0.5532E+00  0.7183E+01
  -3.773  0.5529E+00  0.7189E+01
  -3.763  0.5526E+00  0.7195E+01
  -3.753  0.5523E+00  0.7200E+01
  -3.743  0.5521E+00  0.7206E+01
  -3.733  0.5517E+00  0.7211E+01
  -3.723  0.5488E+00  0.7217E+01
  -3.713  0.5461E+00  0.7222E+01
  -3.703  0.5433E+00  0.7227E+01
  -3.693  0.5406E+00  0.7233E+01
  -3.683  0.5378E+00  0.7238E+01
  -3.673  0.5371E+00  0.7244E+01
  -3.663  0.5429E+00  0.7249E+01
  -3.653  0.5488E+00  0.7255E+01
  -3.643  0.5546E+00  0.7260E+01
  -3.633  0.5550E+00  0.7266E+01
  -3.623  0.5494E+00  0.7271E+01
  -3.613  0.5439E+00  0.7277E+01
  -3.603  0.5384E+00  0.7282E+01
  -3.593  0.5328E+00  0.7287E+01
  -3.583  0.5799E+00  0.7293E+01
  -3.573  0.5593E+00  0.7299E+01
  -3.563  0.5387E+00  0.7304E+01
  -3.553  0.6234E+00  0.7310E+01
  -3.543  0.5542E+00  0.7315E+01
  -3.533  0.4851E+00  0.7321E+01
  -3.523  0.4162E+00  0.7325E+01
  -3.513  0.3473E+00  0.7329E+01
  -3.503  0.3473E+00  0.7332E+01
  -3.493  0.3485E+00  0.7336E+01
  -3.483  0.3497E+00  0.7339E+01
  -3.473  0.3509E+00  0.7343E+01
  -3.463  0.3522E+00  0.7346E+01
  -3.453  0.3534E+00  0.7350E+01
  -3.443  0.3546E+00  0.7353E+01
  -3.433  0.3559E+00  0.7357E+01
  -3.423  0.3571E+00  0.7361E+01
  -3.413  0.3583E+00  0.7364E+01
  -3.403  0.3598E+00  0.7368E+01
  -3.393  0.3612E+00  0.7371E+01
  -3.383  0.3627E+00  0.7375E+01
  -3.373  0.3641E+00  0.7379E+01
  -3.363  0.3656E+00  0.7382E+01
  -3.353  0.3670E+00  0.7386E+01
  -3.343  0.3686E+00  0.7390E+01
  -3.333  0.3703E+00  0.7393E+01
  -3.323  0.3720E+00  0.7397E+01
  -3.313  0.3737E+00  0.7401E+01
  -3.303  0.3753E+00  0.7404E+01
  -3.293  0.3770E+00  0.7408E+01
  -3.283  0.3787E+00  0.7412E+01
  -3.273  0.3809E+00  0.7416E+01
  -3.263  0.3833E+00  0.7420E+01
  -3.253  0.3857E+00  0.7423E+01
  -3.243  0.3881E+00  0.7427E+01
  -3.233  0.3905E+00  0.7431E+01
  -3.223  0.3929E+00  0.7435E+01
  -3.213  0.3954E+00  0.7439E+01
  -3.203  0.3980E+00  0.7443E+01
  -3.193  0.4005E+00  0.7447E+01
  -3.183  0.4031E+00  0.7451E+01
  -3.173  0.4057E+00  0.7455E+01
  -3.163  0.4082E+00  0.7459E+01
  -3.153  0.4109E+00  0.7463E+01
  -3.143  0.4147E+00  0.7467E+01
  -3.133  0.4192E+00  0.7472E+01
  -3.123  0.4238E+00  0.7476E+01
  -3.113  0.4283E+00  0.7480E+01
  -3.103  0.4329E+00  0.7484E+01
  -3.093  0.4374E+00  0.7489E+01
  -3.083  0.4422E+00  0.7493E+01
  -3.073  0.4475E+00  0.7498E+01
  -3.063  0.4529E+00  0.7502E+01
  -3.053  0.4582E+00  0.7507E+01
  -3.043  0.4635E+00  0.7511E+01
  -3.033  0.4689E+00  0.7516E+01
  -3.023  0.4742E+00  0.7521E+01
  -3.013  0.4841E+00  0.7525E+01
  -3.003  0.4968E+00  0.7530E+01
  -2.993  0.5096E+00  0.7535E+01
  -2.983  0.5223E+00  0.7541E+01
  -2.973  0.5350E+00  0.7546E+01
  -2.963  0.5477E+00  0.7551E+01
  -2.953  0.5619E+00  0.7557E+01
  -2.943  0.5907E+00  0.7563E+01
  -2.933  0.6194E+00  0.7569E+01
  -2.923  0.6482E+00  0.7575E+01
  -2.913  0.6770E+00  0.7582E+01
  -2.903  0.9119E+00  0.7593E+01
  -2.893  0.5924E+00  0.7600E+01
  -2.883  0.5670E+00  0.7605E+01
  -2.873  0.5417E+00  0.7611E+01
  -2.863  0.5163E+00  0.7616E+01
  -2.853  0.4910E+00  0.7621E+01
  -2.843  0.4656E+00  0.7626E+01
  -2.833  0.4403E+00  0.7631E+01
  -2.823  0.4355E+00  0.7635E+01
  -2.813  0.4462E+00  0.7639E+01
  -2.803  0.4572E+00  0.7644E+01
  -2.793  0.4686E+00  0.7649E+01
  -2.783  0.4802E+00  0.7653E+01
  -2.773  0.3804E+00  0.7658E+01
  -2.763  0.3993E+00  0.7662E+01
  -2.753  0.4215E+00  0.7666E+01
  -2.743  0.4352E+00  0.7670E+01
  -2.733  0.4260E+00  0.7674E+01
  -2.723  0.4167E+00  0.7679E+01
  -2.713  0.4074E+00  0.7683E+01
  -2.703  0.3982E+00  0.7687E+01
  -2.693  0.3889E+00  0.7691E+01
  -2.683  0.3797E+00  0.7695E+01
  -2.673  0.3704E+00  0.7698E+01
  -2.663  0.3612E+00  0.7702E+01
  -2.653  0.3519E+00  0.7706E+01
  -2.643  0.3426E+00  0.7709E+01
  -2.633  0.3334E+00  0.7712E+01
  -2.623  0.3244E+00  0.7716E+01
  -2.613  0.3230E+00  0.7719E+01
  -2.603  0.3216E+00  0.7722E+01
  -2.593  0.3202E+00  0.7725E+01
  -2.583  0.3189E+00  0.7729E+01
  -2.573  0.3175E+00  0.7732E+01
  -2.563  0.3161E+00  0.7735E+01
  -2.553  0.3147E+00  0.7738E+01
  -2.543  0.3133E+00  0.7741E+01
  -2.533  0.3119E+00  0.7744E+01
  -2.523  0.3105E+00  0.7747E+01
  -2.513  0.3092E+00  0.7751E+01
  -2.503  0.2724E+00  0.7754E+01
  -2.493  0.2729E+00  0.7756E+01
  -2.483  0.2734E+00  0.7759E+01
  -2.473  0.2740E+00  0.7762E+01
  -2.463  0.2745E+00  0.7765E+01
  -2.453  0.2751E+00  0.7767E+01
  -2.443  0.2756E+00  0.7770E+01
  -2.433  0.2762E+00  0.7773E+01
  -2.423  0.2767E+00  0.7776E+01
  -2.413  0.2758E+00  0.7778E+01
  -2.403  0.2736E+00  0.7781E+01
  -2.393  0.2714E+00  0.7784E+01
  -2.383  0.2692E+00  0.7787E+01
  -2.373  0.2670E+00  0.7789E+01
  -2.363  0.2648E+00  0.7792E+01
  -2.353  0.2616E+00  0.7795E+01
  -2.343  0.2585E+00  0.7797E+01
  -2.333  0.2554E+00  0.7800E+01
  -2.323  0.2518E+00  0.7802E+01
  -2.313  0.2481E+00  0.7805E+01
  -2.303  0.2434E+00  0.7807E+01
  -2.293  0.2386E+00  0.7810E+01
  -2.283  0.2338E+00  0.7812E+01
  -2.273  0.2320E+00  0.7814E+01
  -2.263  0.2306E+00  0.7817E+01
  -2.253  0.2291E+00  0.7819E+01
  -2.243  0.2277E+00  0.7821E+01
  -2.233  0.2262E+00  0.7823E+01
  -2.223  0.2248E+00  0.7826E+01
  -2.213  0.2233E+00  0.7828E+01
  -2.203  0.2218E+00  0.7830E+01
  -2.193  0.2204E+00  0.7832E+01
  -2.183  0.2189E+00  0.7835E+01
  -2.173  0.2175E+00  0.7837E+01
  -2.163  0.2160E+00  0.7839E+01
  -2.153  0.2146E+00  0.7841E+01
  -2.143  0.2131E+00  0.7843E+01
  -2.133  0.2116E+00  0.7845E+01
  -2.123  0.2102E+00  0.7847E+01
  -2.113  0.2087E+00  0.7850E+01
  -2.103  0.2073E+00  0.7852E+01
  -2.093  0.1878E+00  0.7854E+01
  -2.083  0.1874E+00  0.7855E+01
  -2.073  0.1870E+00  0.7857E+01
  -2.063  0.1866E+00  0.7859E+01
  -2.053  0.1862E+00  0.7861E+01
  -2.043  0.1858E+00  0.7863E+01
  -2.033  0.1853E+00  0.7865E+01
  -2.023  0.1849E+00  0.7867E+01
  -2.013  0.1845E+00  0.7868E+01
  -2.003  0.1841E+00  0.7870E+01
  -1.993  0.1837E+00  0.7872E+01
  -1.983  0.1833E+00  0.7874E+01
  -1.973  0.1829E+00  0.7876E+01
  -1.963  0.1825E+00  0.7878E+01
  -1.953  0.1812E+00  0.7879E+01
  -1.943  0.1793E+00  0.7881E+01
  -1.933  0.1775E+00  0.7883E+01
  -1.923  0.1756E+00  0.7885E+01
  -1.913  0.1737E+00  0.7887E+01
  -1.903  0.1719E+00  0.7888E+01
  -1.893  0.1700E+00  0.7890E+01
  -1.883  0.1682E+00  0.7892E+01
  -1.873  0.1663E+00  0.7893E+01
  -1.863  0.1642E+00  0.7895E+01
  -1.853  0.1618E+00  0.7897E+01
  -1.843  0.1595E+00  0.7898E+01
  -1.833  0.1571E+00  0.7900E+01
  -1.823  0.1547E+00  0.7901E+01
  -1.813  0.1520E+00  0.7903E+01
  -1.803  0.1499E+00  0.7904E+01
  -1.793  0.1488E+00  0.7906E+01
  -1.783  0.1478E+00  0.7907E+01
  -1.773  0.1468E+00  0.7909E+01
  -1.763  0.1457E+00  0.7910E+01
  -1.753  0.1447E+00  0.7912E+01
  -1.743  0.1437E+00  0.7913E+01
  -1.733  0.1427E+00  0.7915E+01
  -1.723  0.1416E+00  0.7916E+01
  -1.713  0.1406E+00  0.7918E+01
  -1.703  0.1396E+00  0.7919E+01
  -1.693  0.1385E+00  0.7920E+01
  -1.683  0.1375E+00  0.7922E+01
  -1.673  0.1365E+00  0.7923E+01
  -1.663  0.1355E+00  0.7924E+01
  -1.653  0.1344E+00  0.7926E+01
  -1.643  0.1334E+00  0.7927E+01
  -1.633  0.1324E+00  0.7928E+01
  -1.623  0.1313E+00  0.7930E+01
  -1.613  0.1303E+00  0.7931E+01
  -1.603  0.1293E+00  0.7932E+01
  -1.593  0.1282E+00  0.7934E+01
  -1.583  0.1272E+00  0.7935E+01
  -1.573  0.1262E+00  0.7936E+01
  -1.563  0.1124E+00  0.7937E+01
  -1.553  0.1120E+00  0.7939E+01
  -1.543  0.1116E+00  0.7940E+01
  -1.533  0.1111E+00  0.7941E+01
  -1.523  0.1107E+00  0.7942E+01
  -1.513  0.1102E+00  0.7943E+01
  -1.503  0.1098E+00  0.7944E+01
  -1.493  0.1094E+00  0.7945E+01
  -1.483  0.1089E+00  0.7946E+01
  -1.473  0.1085E+00  0.7947E+01
  -1.463  0.1081E+00  0.7948E+01
  -1.453  0.1076E+00  0.7950E+01
  -1.443  0.1072E+00  0.7951E+01
  -1.433  0.1067E+00  0.7952E+01
  -1.423  0.1063E+00  0.7953E+01
  -1.413  0.1059E+00  0.7954E+01
  -1.403  0.1054E+00  0.7955E+01
  -1.393  0.1044E+00  0.7956E+01
  -1.383  0.1030E+00  0.7957E+01
  -1.373  0.1015E+00  0.7958E+01
  -1.363  0.1001E+00  0.7959E+01
  -1.353  0.9860E-01  0.7960E+01
  -1.343  0.9714E-01  0.7961E+01
  -1.333  0.9556E-01  0.7962E+01
  -1.323  0.9388E-01  0.7963E+01
  -1.313  0.9220E-01  0.7964E+01
  -1.303  0.9052E-01  0.7965E+01
  -1.293  0.8884E-01  0.7966E+01
  -1.283  0.8716E-01  0.7966E+01
  -1.273  0.8548E-01  0.7967E+01
  -1.263  0.8380E-01  0.7968E+01
  -1.253  0.8212E-01  0.7969E+01
  -1.243  0.8044E-01  0.7970E+01
  -1.233  0.7876E-01  0.7971E+01
  -1.223  0.7708E-01  0.7971E+01
  -1.213  0.7540E-01  0.7972E+01
  -1.203  0.7372E-01  0.7973E+01
  -1.193  0.7282E-01  0.7974E+01
  -1.183  0.7221E-01  0.7974E+01
  -1.173  0.7161E-01  0.7975E+01
  -1.163  0.7100E-01  0.7976E+01
  -1.153  0.7039E-01  0.7977E+01
  -1.143  0.6979E-01  0.7977E+01
  -1.133  0.6918E-01  0.7978E+01
  -1.123  0.6857E-01  0.7979E+01
  -1.113  0.6797E-01  0.7979E+01
  -1.103  0.6736E-01  0.7980E+01
  -1.093  0.6676E-01  0.7981E+01
  -1.083  0.6615E-01  0.7981E+01
  -1.073  0.6554E-01  0.7982E+01
  -1.063  0.6494E-01  0.7983E+01
  -1.053  0.6433E-01  0.7983E+01
  -1.043  0.6372E-01  0.7984E+01
  -1.033  0.6312E-01  0.7985E+01
  -1.023  0.6251E-01  0.7985E+01
  -1.013  0.6191E-01  0.7986E+01
  -1.003  0.6130E-01  0.7986E+01
  -0.993  0.6069E-01  0.7987E+01
  -0.983  0.6009E-01  0.7988E+01
  -0.973  0.5948E-01  0.7988E+01
  -0.963  0.5887E-01  0.7989E+01
  -0.953  0.5827E-01  0.7989E+01
  -0.943  0.5766E-01  0.7990E+01
  -0.933  0.5706E-01  0.7991E+01
  -0.923  0.3935E-01  0.7991E+01
  -0.913  0.3849E-01  0.7991E+01
  -0.903  0.3763E-01  0.7992E+01
  -0.893  0.3677E-01  0.7992E+01
  -0.883  0.3591E-01  0.7993E+01
  -0.873  0.3505E-01  0.7993E+01
  -0.863  0.3419E-01  0.7993E+01
  -0.853  0.3333E-01  0.7994E+01
  -0.843  0.3247E-01  0.7994E+01
  -0.833  0.3161E-01  0.7994E+01
  -0.823  0.3075E-01  0.7995E+01
  -0.813  0.2989E-01  0.7995E+01
  -0.803  0.2903E-01  0.7995E+01
  -0.793  0.2817E-01  0.7995E+01
  -0.783  0.2731E-01  0.7996E+01
  -0.773  0.2645E-01  0.7996E+01
  -0.763  0.2558E-01  0.7996E+01
  -0.753  0.2472E-01  0.7996E+01
  -0.743  0.2386E-01  0.7997E+01
  -0.733  0.2300E-01  0.7997E+01
  -0.723  0.2214E-01  0.7997E+01
  -0.713  0.2128E-01  0.7997E+01
  -0.703  0.2042E-01  0.7998E+01
  -0.693  0.1956E-01  0.7998E+01
  -0.683  0.1870E-01  0.7998E+01
  -0.673  0.1784E-01  0.7998E+01
  -0.663  0.1698E-01  0.7998E+01
  -0.653  0.1612E-01  0.7998E+01
  -0.643  0.1526E-01  0.7999E+01
  -0.633  0.1440E-01  0.7999E+01
  -0.623  0.1354E-01  0.7999E+01
  -0.613  0.1268E-01  0.7999E+01
  -0.603  0.1182E-01  0.7999E+01
  -0.593  0.1096E-01  0.7999E+01
  -0.583  0.1010E-01  0.7999E+01
  -0.573  0.9239E-02  0.8000E+01
  -0.563  0.8379E-02  0.8000E+01
  -0.553  0.7519E-02  0.8000E+01
  -0.543  0.6658E-02  0.8000E+01
  -0.533  0.5798E-02  0.8000E+01
  -0.523  0.4938E-02  0.8000E+01
  -0.513  0.4077E-02  0.8000E+01
  -0.503  0.3217E-02  0.8000E+01
  -0.493  0.2357E-02  0.8000E+01
  -0.483  0.1496E-02  0.8000E+01
  -0.473  0.6361E-03  0.8000E+01
  -0.463  0.2335E-03  0.8000E+01
  -0.453  0.1130E-02  0.8000E+01
  -0.443  0.2026E-02  0.8000E+01
  -0.433  0.2922E-02  0.8000E+01
  -0.423  0.3818E-02  0.8000E+01
  -0.413  0.4714E-02  0.8000E+01
  -0.403  0.5610E-02  0.8000E+01
  -0.393  0.6506E-02  0.8000E+01
  -0.383  0.7402E-02  0.8000E+01
  -0.373  0.8298E-02  0.8000E+01
  -0.363  0.9194E-02  0.8000E+01
  -0.353  0.1009E-01  0.8001E+01
  -0.343  0.1099E-01  0.8001E+01
  -0.333  0.1188E-01  0.8001E+01
  -0.323  0.1278E-01  0.8001E+01
  -0.313  0.1367E-01  0.8001E+01
  -0.303  0.1457E-01  0.8001E+01
  -0.293  0.1547E-01  0.8001E+01
  -0.283  0.1636E-01  0.8001E+01
  -0.273  0.1726E-01  0.8002E+01
  -0.263  0.1816E-01  0.8002E+01
  -0.253  0.1905E-01  0.8002E+01
  -0.243  0.1995E-01  0.8002E+01
  -0.233  0.2084E-01  0.8002E+01
  -0.223  0.2174E-01  0.8003E+01
  -0.213  0.2264E-01  0.8003E+01
  -0.203  0.2353E-01  0.8003E+01
  -0.193  0.2443E-01  0.8003E+01
  -0.183  0.2532E-01  0.8004E+01
  -0.173  0.2622E-01  0.8004E+01
  -0.163  0.2712E-01  0.8004E+01
  -0.153  0.2801E-01  0.8004E+01
  -0.143  0.2891E-01  0.8005E+01
  -0.133  0.2980E-01  0.8005E+01
  -0.123  0.3070E-01  0.8005E+01
  -0.113  0.3160E-01  0.8006E+01
  -0.103  0.3249E-01  0.8006E+01
  -0.093  0.3339E-01  0.8006E+01
  -0.083  0.3429E-01  0.8007E+01
  -0.073  0.3518E-01  0.8007E+01
  -0.063  0.3608E-01  0.8007E+01
  -0.053  0.3697E-01  0.8008E+01
  -0.043  0.3787E-01  0.8008E+01
  -0.033  0.3877E-01  0.8008E+01
  -0.023  0.3966E-01  0.8009E+01
  -0.013  0.4056E-01  0.8009E+01
  -0.003  0.6175E-01  0.8010E+01
   0.007  0.6236E-01  0.8010E+01
   0.017  0.6298E-01  0.8011E+01
   0.027  0.6359E-01  0.8012E+01
   0.037  0.6421E-01  0.8012E+01
   0.047  0.6482E-01  0.8013E+01
   0.057  0.6544E-01  0.8014E+01
   0.067  0.6605E-01  0.8014E+01
   0.077  0.6667E-01  0.8015E+01
   0.087  0.6728E-01  0.8016E+01
   0.097  0.6790E-01  0.8016E+01
   0.107  0.6851E-01  0.8017E+01
   0.117  0.6913E-01  0.8018E+01
   0.127  0.6974E-01  0.8018E+01
   0.137  0.7036E-01  0.8019E+01
   0.147  0.7097E-01  0.8020E+01
   0.157  0.7159E-01  0.8020E+01
   0.167  0.7220E-01  0.8021E+01
   0.177  0.7282E-01  0.8022E+01
   0.187  0.7343E-01  0.8023E+01
   0.197  0.7405E-01  0.8023E+01
   0.207  0.7466E-01  0.8024E+01
   0.217  0.7528E-01  0.8025E+01
   0.227  0.7589E-01  0.8026E+01
   0.237  0.7744E-01  0.8026E+01
   0.247  0.7971E-01  0.8027E+01
   0.257  0.8198E-01  0.8028E+01
   0.267  0.8425E-01  0.8029E+01
   0.277  0.8652E-01  0.8030E+01
   0.287  0.8879E-01  0.8031E+01
   0.297  0.9106E-01  0.8031E+01
   0.307  0.9333E-01  0.8032E+01
   0.317  0.9560E-01  0.8033E+01
   0.327  0.9787E-01  0.8034E+01
   0.337  0.1001E+00  0.8035E+01
   0.347  0.1024E+00  0.8036E+01
   0.357  0.1047E+00  0.8037E+01
   0.367  0.1069E+00  0.8038E+01
   0.377  0.1092E+00  0.8039E+01
   0.387  0.1115E+00  0.8041E+01
   0.397  0.1133E+00  0.8042E+01
   0.407  0.1149E+00  0.8043E+01
   0.417  0.1165E+00  0.8044E+01
   0.427  0.1181E+00  0.8045E+01
   0.437  0.1190E+00  0.8046E+01
   0.447  0.1190E+00  0.8047E+01
   0.457  0.1190E+00  0.8049E+01
   0.467  0.1190E+00  0.8050E+01
   0.477  0.1190E+00  0.8051E+01
   0.487  0.1190E+00  0.8052E+01
   0.497  0.1191E+00  0.8053E+01
   0.507  0.1191E+00  0.8055E+01
   0.517  0.1191E+00  0.8056E+01
   0.527  0.1191E+00  0.8057E+01
   0.537  0.1191E+00  0.8058E+01
   0.547  0.1461E+00  0.8059E+01
   0.557  0.1470E+00  0.8061E+01
   0.567  0.1480E+00  0.8062E+01
   0.577  0.1489E+00  0.8064E+01
   0.587  0.1498E+00  0.8065E+01
   0.597  0.1507E+00  0.8067E+01
   0.607  0.1516E+00  0.8068E+01
   0.617  0.1525E+00  0.8070E+01
   0.627  0.1534E+00  0.8071E+01
   0.637  0.1543E+00  0.8073E+01
   0.647  0.1553E+00  0.8075E+01
   0.657  0.1562E+00  0.8076E+01
   0.667  0.1571E+00  0.8078E+01
   0.677  0.1580E+00  0.8079E+01
   0.687  0.1589E+00  0.8081E+01
   0.697  0.1598E+00  0.8082E+01
   0.707  0.1607E+00  0.8084E+01
   0.717  0.1651E+00  0.8086E+01
   0.727  0.1705E+00  0.8087E+01
   0.737  0.1759E+00  0.8089E+01
   0.747  0.1813E+00  0.8091E+01
   0.757  0.1867E+00  0.8093E+01
   0.767  0.1921E+00  0.8095E+01
   0.777  0.1975E+00  0.8097E+01
   0.787  0.2028E+00  0.8099E+01
   0.797  0.2082E+00  0.8101E+01
   0.807  0.2136E+00  0.8103E+01
   0.817  0.2190E+00  0.8105E+01
   0.827  0.2244E+00  0.8107E+01
   0.837  0.2298E+00  0.8109E+01
   0.847  0.2352E+00  0.8112E+01
   0.857  0.2406E+00  0.8114E+01
   0.867  0.2362E+00  0.8116E+01
   0.877  0.2299E+00  0.8119E+01
   0.887  0.2227E+00  0.8121E+01
   0.897  0.2156E+00  0.8123E+01
   0.907  0.2084E+00  0.8125E+01
   0.917  0.2826E+00  0.8128E+01
   0.927  0.2781E+00  0.8131E+01
   0.937  0.2736E+00  0.8133E+01
   0.947  0.2690E+00  0.8136E+01
   0.957  0.2645E+00  0.8139E+01
   0.967  0.2600E+00  0.8141E+01
   0.977  0.2555E+00  0.8144E+01
   0.987  0.2564E+00  0.8147E+01
   0.997  0.2693E+00  0.8149E+01
   1.007  0.2822E+00  0.8152E+01
   1.017  0.2952E+00  0.8155E+01
   1.027  0.3081E+00  0.8158E+01
   1.037  0.3210E+00  0.8161E+01
   1.047  0.3340E+00  0.8164E+01
   1.057  0.3469E+00  0.8168E+01
   1.067  0.3598E+00  0.8171E+01
   1.077  0.3728E+00  0.8175E+01
   1.087  0.3857E+00  0.8179E+01
   1.097  0.3986E+00  0.8183E+01
   1.107  0.8822E+00  0.8189E+01
   1.117  0.4257E+00  0.8195E+01
   1.127  0.4389E+00  0.8199E+01
   1.137  0.4521E+00  0.8204E+01
   1.147  0.4740E+00  0.8208E+01
   1.157  0.5012E+00  0.8213E+01
   1.167  0.5798E+00  0.8219E+01
   1.177  0.9369E+00  0.8226E+01
   1.187  0.8064E+00  0.8237E+01
   1.197  0.9529E+00  0.8246E+01
   1.207  0.1099E+01  0.8256E+01
   1.217  0.7538E+00  0.8267E+01
   1.227  0.7265E+00  0.8274E+01
   1.237  0.6991E+00  0.8281E+01
   1.247  0.6718E+00  0.8288E+01
   1.257  0.6445E+00  0.8295E+01
   1.267  0.6172E+00  0.8301E+01
   1.277  0.5958E+00  0.8307E+01
   1.287  0.5766E+00  0.8313E+01
   1.297  0.5577E+00  0.8319E+01
   1.307  0.5388E+00  0.8324E+01
   1.317  0.5199E+00  0.8329E+01
   1.327  0.5067E+00  0.8335E+01
   1.337  0.4976E+00  0.8340E+01
   1.347  0.4899E+00  0.8345E+01
   1.357  0.4820E+00  0.8349E+01
   1.367  0.4748E+00  0.8354E+01
   1.377  0.4681E+00  0.8359E+01
   1.387  0.4615E+00  0.8364E+01
   1.397  0.4549E+00  0.8368E+01
   1.407  0.4494E+00  0.8373E+01
   1.417  0.4440E+00  0.8377E+01
   1.427  0.4386E+00  0.8382E+01
   1.437  0.4333E+00  0.8386E+01
   1.447  0.4279E+00  0.8390E+01
   1.457  0.4225E+00  0.8394E+01
   1.467  0.4171E+00  0.8399E+01
   1.477  0.4117E+00  0.8403E+01
   1.487  0.4071E+00  0.8407E+01
   1.497  0.4029E+00  0.8411E+01
   1.507  0.3987E+00  0.8415E+01
   1.517  0.3956E+00  0.8419E+01
   1.527  0.3926E+00  0.8423E+01
   1.537  0.3897E+00  0.8427E+01
   1.547  0.3868E+00  0.8431E+01
   1.557  0.3841E+00  0.8435E+01
   1.567  0.3815E+00  0.8438E+01
   1.577  0.3789E+00  0.8442E+01
   1.587  0.3763E+00  0.8446E+01
   1.597  0.3737E+00  0.8450E+01
   1.607  0.3712E+00  0.8453E+01
   1.617  0.3686E+00  0.8457E+01
   1.627  0.3660E+00  0.8461E+01
   1.637  0.3634E+00  0.8464E+01
   1.647  0.3608E+00  0.8468E+01
   1.657  0.3582E+00  0.8472E+01
   1.667  0.3556E+00  0.8475E+01
   1.677  0.3530E+00  0.8479E+01
   1.687  0.3506E+00  0.8482E+01
   1.697  0.3484E+00  0.8486E+01
   1.707  0.3462E+00  0.8489E+01
   1.717  0.3440E+00  0.8493E+01
   1.727  0.3419E+00  0.8496E+01
   1.737  0.3398E+00  0.8500E+01
   1.747  0.3380E+00  0.8503E+01
   1.757  0.3364E+00  0.8506E+01
   1.767  0.3348E+00  0.8510E+01
   1.777  0.3331E+00  0.8513E+01
   1.787  0.3315E+00  0.8516E+01
   1.797  0.3299E+00  0.8520E+01
   1.807  0.3283E+00  0.8523E+01
   1.817  0.3266E+00  0.8526E+01
   1.827  0.3248E+00  0.8529E+01
   1.837  0.3231E+00  0.8533E+01
   1.847  0.3213E+00  0.8536E+01
   1.857  0.3196E+00  0.8539E+01
   1.867  0.3179E+00  0.8542E+01
   1.877  0.3161E+00  0.8545E+01
   1.887  0.3134E+00  0.8549E+01
   1.897  0.3121E+00  0.8552E+01
   1.907  0.3109E+00  0.8555E+01
   1.917  0.3097E+00  0.8558E+01
   1.927  0.3086E+00  0.8561E+01
   1.937  0.3074E+00  0.8564E+01
   1.947  0.3062E+00  0.8567E+01
   1.957  0.3050E+00  0.8570E+01
   1.967  0.3038E+00  0.8573E+01
   1.977  0.3027E+00  0.8576E+01
   1.987  0.3015E+00  0.8579E+01
   1.997  0.3004E+00  0.8582E+01
   2.007  0.2994E+00  0.8585E+01
   2.017  0.2983E+00  0.8588E+01
   2.027  0.2974E+00  0.8591E+01
   2.037  0.2965E+00  0.8594E+01
   2.047  0.2955E+00  0.8597E+01
   2.057  0.2946E+00  0.8600E+01
   2.067  0.2937E+00  0.8603E+01
   2.077  0.2928E+00  0.8606E+01
   2.087  0.2919E+00  0.8609E+01
   2.097  0.2910E+00  0.8612E+01
   2.107  0.2901E+00  0.8615E+01
   2.117  0.2892E+00  0.8618E+01
   2.127  0.2883E+00  0.8621E+01
   2.137  0.2875E+00  0.8623E+01
   2.147  0.2866E+00  0.8626E+01
   2.157  0.2857E+00  0.8629E+01
   2.167  0.2848E+00  0.8632E+01
   2.177  0.2839E+00  0.8635E+01
   2.187  0.2830E+00  0.8638E+01
   2.197  0.2822E+00  0.8641E+01
   2.207  0.2813E+00  0.8643E+01
   2.217  0.2804E+00  0.8646E+01
   2.227  0.2795E+00  0.8649E+01
   2.237  0.2786E+00  0.8652E+01
   2.247  0.2778E+00  0.8655E+01
   2.257  0.2769E+00  0.8657E+01
   2.267  0.2761E+00  0.8660E+01
   2.277  0.2752E+00  0.8663E+01
   2.287  0.2744E+00  0.8666E+01
   2.297  0.2735E+00  0.8668E+01
   2.307  0.2726E+00  0.8671E+01
   2.317  0.2717E+00  0.8674E+01
   2.327  0.2709E+00  0.8677E+01
   2.337  0.2701E+00  0.8679E+01
   2.347  0.2693E+00  0.8682E+01
   2.357  0.2685E+00  0.8685E+01
   2.367  0.2677E+00  0.8687E+01
   2.377  0.2670E+00  0.8690E+01
   2.387  0.2662E+00  0.8693E+01
   2.397  0.2653E+00  0.8695E+01
   2.407  0.2642E+00  0.8698E+01
   2.417  0.2630E+00  0.8701E+01
   2.427  0.2618E+00  0.8703E+01
   2.437  0.2607E+00  0.8706E+01
   2.447  0.2601E+00  0.8708E+01
   2.457  0.2596E+00  0.8711E+01
   2.467  0.2590E+00  0.8714E+01
   2.477  0.2585E+00  0.8716E+01
   2.487  0.2579E+00  0.8719E+01
   2.497  0.2574E+00  0.8721E+01
   2.507  0.2568E+00  0.8724E+01
   2.517  0.2563E+00  0.8726E+01
   2.527  0.2557E+00  0.8729E+01
   2.537  0.2552E+00  0.8732E+01
   2.547  0.2547E+00  0.8734E+01
   2.557  0.2541E+00  0.8737E+01
   2.567  0.2536E+00  0.8739E+01
   2.577  0.2531E+00  0.8742E+01
   2.587  0.2525E+00  0.8744E+01
   2.597  0.2520E+00  0.8747E+01
   2.607  0.2514E+00  0.8749E+01
   2.617  0.2509E+00  0.8752E+01
   2.627  0.2504E+00  0.8754E+01
   2.637  0.3728E+00  0.8757E+01
   2.647  0.5167E+00  0.8762E+01
   2.657  0.4356E+00  0.8767E+01
   2.667  0.4471E+00  0.8771E+01
   2.677  0.4587E+00  0.8776E+01
   2.687  0.4702E+00  0.8781E+01
   2.697  0.4818E+00  0.8785E+01
   2.707  0.4864E+00  0.8790E+01
   2.717  0.4709E+00  0.8795E+01
   2.727  0.4553E+00  0.8800E+01
   2.737  0.4537E+00  0.8804E+01
   2.747  0.4574E+00  0.8809E+01
   2.757  0.4612E+00  0.8813E+01
   2.767  0.4649E+00  0.8818E+01
   2.777  0.4686E+00  0.8823E+01
   2.787  0.4723E+00  0.8827E+01
   2.797  0.4760E+00  0.8832E+01
   2.807  0.4607E+00  0.8837E+01
   2.817  0.4592E+00  0.8841E+01
   2.827  0.4577E+00  0.8846E+01
   2.837  0.4563E+00  0.8851E+01
   2.847  0.4548E+00  0.8855E+01
   2.857  0.4535E+00  0.8860E+01
   2.867  0.4551E+00  0.8864E+01
   2.877  0.4568E+00  0.8869E+01
   2.887  0.4584E+00  0.8873E+01
   2.897  0.4600E+00  0.8878E+01
   2.907  0.4616E+00  0.8883E+01
   2.917  0.4631E+00  0.8887E+01
   2.927  0.4647E+00  0.8892E+01
   2.937  0.4626E+00  0.8896E+01
   2.947  0.4563E+00  0.8901E+01
   2.957  0.4500E+00  0.8906E+01
   2.967  0.4493E+00  0.8910E+01
   2.977  0.4491E+00  0.8915E+01
   2.987  0.4488E+00  0.8919E+01
   2.997  0.4486E+00  0.8924E+01
   3.007  0.4474E+00  0.8928E+01
   3.017  0.4474E+00  0.8933E+01
   3.027  0.4474E+00  0.8937E+01
   3.037  0.4478E+00  0.8941E+01
   3.047  0.4487E+00  0.8946E+01
   3.057  0.4497E+00  0.8950E+01
   3.067  0.4506E+00  0.8955E+01
   3.077  0.4516E+00  0.8959E+01
   3.087  0.4525E+00  0.8964E+01
   3.097  0.4535E+00  0.8969E+01
   3.107  0.4544E+00  0.8973E+01
   3.117  0.4471E+00  0.8978E+01
   3.127  0.4457E+00  0.8982E+01
   3.137  0.4443E+00  0.8986E+01
   3.147  0.4429E+00  0.8991E+01
   3.157  0.4416E+00  0.8995E+01
   3.167  0.4412E+00  0.9000E+01
   3.177  0.4414E+00  0.9004E+01
   3.187  0.4415E+00  0.9009E+01
   3.197  0.4417E+00  0.9013E+01
   3.207  0.4418E+00  0.9017E+01
   3.217  0.4420E+00  0.9022E+01
   3.227  0.4421E+00  0.9026E+01
   3.237  0.4423E+00  0.9031E+01
   3.247  0.4424E+00  0.9035E+01
   3.257  0.4425E+00  0.9040E+01
   3.267  0.4429E+00  0.9044E+01
   3.277  0.4434E+00  0.9048E+01
   3.287  0.4439E+00  0.9053E+01
   3.297  0.4444E+00  0.9057E+01
   3.307  0.4449E+00  0.9062E+01
   3.317  0.4438E+00  0.9066E+01
   3.327  0.4408E+00  0.9071E+01
   3.337  0.4378E+00  0.9075E+01
   3.347  0.4371E+00  0.9079E+01
   3.357  0.4366E+00  0.9084E+01
   3.367  0.4361E+00  0.9088E+01
   3.377  0.4356E+00  0.9092E+01
   3.387  0.4351E+00  0.9097E+01
   3.397  0.4346E+00  0.9101E+01
   3.407  0.4341E+00  0.9105E+01
   3.417  0.4337E+00  0.9110E+01
   3.427  0.4338E+00  0.9114E+01
   3.437  0.4338E+00  0.9118E+01
   3.447  0.4339E+00  0.9123E+01
   3.457  0.4339E+00  0.9127E+01
   3.467  0.4340E+00  0.9131E+01
   3.477  0.4340E+00  0.9136E+01
   3.487  0.4341E+00  0.9140E+01
   3.497  0.4341E+00  0.9145E+01
   3.507  0.4342E+00  0.9149E+01
   3.517  0.4342E+00  0.9153E+01
   3.527  0.4343E+00  0.9158E+01
   3.537  0.4343E+00  0.9162E+01
   3.547  0.4345E+00  0.9166E+01
   3.557  0.4346E+00  0.9171E+01
   3.567  0.4310E+00  0.9175E+01
   3.577  0.4297E+00  0.9179E+01
   3.587  0.4284E+00  0.9184E+01
   3.597  0.4271E+00  0.9188E+01
   3.607  0.4260E+00  0.9192E+01
   3.617  0.4251E+00  0.9196E+01
   3.627  0.4250E+00  0.9201E+01
   3.637  0.4248E+00  0.9205E+01
   3.647  0.4246E+00  0.9209E+01
   3.657  0.4245E+00  0.9213E+01
   3.667  0.4243E+00  0.9218E+01
   3.677  0.4241E+00  0.9222E+01
   3.687  0.4240E+00  0.9226E+01
   3.697  0.4238E+00  0.9230E+01
   3.707  0.4236E+00  0.9234E+01
   3.717  0.4234E+00  0.9239E+01
   3.727  0.4236E+00  0.9243E+01
   3.737  0.4237E+00  0.9247E+01
   3.747  0.4238E+00  0.9251E+01
   3.757  0.4239E+00  0.9256E+01
   3.767  0.4240E+00  0.9260E+01
   3.777  0.4241E+00  0.9264E+01
   3.787  0.4243E+00  0.9268E+01
   3.797  0.4244E+00  0.9273E+01
   3.807  0.4245E+00  0.9277E+01
   3.817  0.4246E+00  0.9281E+01
   3.827  0.4247E+00  0.9285E+01
   3.837  0.4249E+00  0.9290E+01
   3.847  0.4245E+00  0.9294E+01
   3.857  0.4226E+00  0.9298E+01
   3.867  0.4207E+00  0.9302E+01
   3.877  0.4199E+00  0.9307E+01
   3.887  0.4195E+00  0.9311E+01
   3.897  0.4191E+00  0.9315E+01
   3.907  0.4187E+00  0.9319E+01
   3.917  0.4183E+00  0.9323E+01
   3.927  0.4178E+00  0.9327E+01
   3.937  0.4174E+00  0.9332E+01
   3.947  0.4170E+00  0.9336E+01
   3.957  0.4169E+00  0.9340E+01
   3.967  0.4168E+00  0.9344E+01
   3.977  0.4166E+00  0.9348E+01
   3.987  0.4165E+00  0.9352E+01
   3.997  0.4164E+00  0.9357E+01
   4.007  0.4163E+00  0.9361E+01
   4.017  0.4161E+00  0.9365E+01
   4.027  0.4160E+00  0.9369E+01
   4.037  0.4159E+00  0.9373E+01
   4.047  0.4158E+00  0.9377E+01
   4.057  0.4156E+00  0.9382E+01
   4.067  0.4155E+00  0.9386E+01
   4.077  0.4155E+00  0.9390E+01
   4.087  0.4155E+00  0.9394E+01
   4.097  0.4155E+00  0.9398E+01
   4.107  0.4154E+00  0.9402E+01
   4.117  0.4154E+00  0.9407E+01
   4.127  0.4153E+00  0.9411E+01
   4.137  0.4152E+00  0.9415E+01
   4.147  0.4151E+00  0.9419E+01
   4.157  0.4151E+00  0.9423E+01
   4.167  0.4150E+00  0.9427E+01
   4.177  0.4127E+00  0.9431E+01
   4.187  0.4118E+00  0.9436E+01
   4.197  0.4110E+00  0.9440E+01
   4.207  0.4093E+00  0.9444E+01
   4.217  0.4086E+00  0.9448E+01
   4.227  0.4081E+00  0.9452E+01
   4.237  0.4078E+00  0.9456E+01
   4.247  0.4076E+00  0.9460E+01
   4.257  0.4074E+00  0.9464E+01
   4.267  0.4072E+00  0.9468E+01
   4.277  0.4071E+00  0.9472E+01
   4.287  0.4069E+00  0.9476E+01
   4.297  0.4067E+00  0.9480E+01
   4.307  0.4065E+00  0.9485E+01
   4.317  0.4063E+00  0.9489E+01
   4.327  0.4062E+00  0.9493E+01
   4.337  0.4061E+00  0.9497E+01
   4.347  0.4061E+00  0.9501E+01
   4.357  0.4061E+00  0.9505E+01
   4.367  0.4061E+00  0.9509E+01
   4.377  0.4060E+00  0.9513E+01
   4.387  0.4060E+00  0.9517E+01
   4.397  0.4060E+00  0.9521E+01
   4.407  0.4059E+00  0.9525E+01
   4.417  0.4059E+00  0.9529E+01
   4.427  0.4058E+00  0.9533E+01
   4.437  0.4875E+00  0.9538E+01
   4.447  0.6343E+00  0.9543E+01
   4.457  0.5907E+00  0.9550E+01
   4.467  0.6029E+00  0.9556E+01
   4.477  0.6152E+00  0.9562E+01
   4.487  0.6275E+00  0.9568E+01
   4.497  0.6398E+00  0.9575E+01
   4.507  0.6514E+00  0.9581E+01
   4.517  0.6361E+00  0.9588E+01
   4.527  0.6209E+00  0.9594E+01
   4.537  0.6147E+00  0.9600E+01
   4.547  0.6177E+00  0.9606E+01
   4.557  0.6211E+00  0.9612E+01
   4.567  0.6251E+00  0.9619E+01
   4.577  0.6290E+00  0.9625E+01
   4.587  0.6329E+00  0.9631E+01
   4.597  0.6369E+00  0.9638E+01
   4.607  0.6408E+00  0.9644E+01
   4.617  0.6211E+00  0.9650E+01
   4.627  0.6198E+00  0.9656E+01
   4.637  0.6186E+00  0.9663E+01
   4.647  0.6174E+00  0.9669E+01
   4.657  0.6163E+00  0.9675E+01
   4.667  0.6182E+00  0.9681E+01
   4.677  0.6201E+00  0.9687E+01
   4.687  0.6221E+00  0.9694E+01
   4.697  0.6241E+00  0.9700E+01
   4.707  0.6261E+00  0.9706E+01
   4.717  0.6281E+00  0.9712E+01
   4.727  0.6301E+00  0.9719E+01
   4.737  0.6285E+00  0.9725E+01
   4.747  0.6226E+00  0.9731E+01
   4.757  0.6167E+00  0.9737E+01
   4.767  0.6168E+00  0.9744E+01
   4.777  0.6171E+00  0.9750E+01
   4.787  0.6173E+00  0.9756E+01
   4.797  0.6174E+00  0.9762E+01
   4.807  0.6175E+00  0.9768E+01
   4.817  0.6176E+00  0.9774E+01
   4.827  0.6177E+00  0.9781E+01
   4.837  0.6182E+00  0.9787E+01
   4.847  0.6195E+00  0.9793E+01
   4.857  0.6208E+00  0.9799E+01
   4.867  0.6222E+00  0.9805E+01
   4.877  0.6236E+00  0.9812E+01
   4.887  0.6250E+00  0.9818E+01
   4.897  0.6264E+00  0.9824E+01
   4.907  0.6278E+00  0.9830E+01
   4.917  0.6205E+00  0.9837E+01
   4.927  0.6195E+00  0.9843E+01
   4.937  0.6170E+00  0.9849E+01
   4.947  0.6156E+00  0.9855E+01
   4.957  0.6148E+00  0.9861E+01
   4.967  0.6156E+00  0.9867E+01
   4.977  0.6165E+00  0.9874E+01
   4.987  0.6176E+00  0.9880E+01
   4.997  0.6188E+00  0.9886E+01
   5.007  0.6199E+00  0.9892E+01
   5.017  0.6211E+00  0.9898E+01
   5.027  0.6223E+00  0.9905E+01
   5.037  0.6235E+00  0.9911E+01
   5.047  0.6247E+00  0.9917E+01
   5.057  0.6259E+00  0.9923E+01
   5.067  0.6274E+00  0.9930E+01
   5.077  0.6290E+00  0.9936E+01
   5.087  0.6306E+00  0.9942E+01
   5.097  0.6323E+00  0.9948E+01
   5.107  0.6339E+00  0.9955E+01
   5.117  0.6321E+00  0.9961E+01
   5.127  0.6302E+00  0.9967E+01
   5.137  0.6295E+00  0.9974E+01
   5.147  0.6322E+00  0.9980E+01
   5.157  0.6350E+00  0.9986E+01
   5.167  0.6399E+00  0.9993E+01
   5.177  0.6447E+00  0.9999E+01
   5.187  0.6496E+00  0.1001E+02
   5.197  0.6545E+00  0.1001E+02
   5.207  0.6594E+00  0.1002E+02
   5.217  0.6648E+00  0.1003E+02
   5.227  0.6703E+00  0.1003E+02
   5.237  0.6813E+00  0.1004E+02
   5.247  0.7032E+00  0.1005E+02
   5.257  0.7251E+00  0.1005E+02
   5.267  0.7469E+00  0.1006E+02
   5.277  0.7688E+00  0.1007E+02
   5.287  0.7907E+00  0.1008E+02
   5.297  0.8125E+00  0.1008E+02
   5.307  0.8344E+00  0.1009E+02
   5.317  0.8317E+00  0.1010E+02
   5.327  0.8208E+00  0.1011E+02
   5.337  0.8100E+00  0.1012E+02
   5.347  0.8047E+00  0.1012E+02
   5.357  0.8607E+00  0.1013E+02
   5.367  0.9366E+00  0.1014E+02
   5.377  0.1047E+01  0.1015E+02
   5.387  0.1158E+01  0.1016E+02
   5.397  0.1060E+01  0.1017E+02
   5.407  0.9541E+00  0.1018E+02
   5.417  0.8494E+00  0.1019E+02
   5.427  0.7446E+00  0.1020E+02
   5.437  0.6476E+00  0.1021E+02
   5.447  0.5704E+00  0.1021E+02
   5.457  0.5576E+00  0.1022E+02
   5.467  0.5656E+00  0.1022E+02
   5.477  0.7037E+00  0.1023E+02
   5.487  0.5286E+00  0.1024E+02
   5.497  0.5305E+00  0.1024E+02
   5.507  0.5325E+00  0.1025E+02
   5.517  0.5347E+00  0.1025E+02
   5.527  0.5369E+00  0.1026E+02
   5.537  0.5126E+00  0.1026E+02
   5.547  0.4868E+00  0.1027E+02
   5.557  0.4701E+00  0.1027E+02
   5.567  0.4642E+00  0.1028E+02
   5.577  0.4583E+00  0.1028E+02
   5.587  0.4524E+00  0.1029E+02
   5.597  0.4569E+00  0.1029E+02
   5.607  0.4617E+00  0.1030E+02
   5.617  0.4664E+00  0.1030E+02
   5.627  0.4714E+00  0.1030E+02
   5.637  0.4611E+00  0.1031E+02
   5.647  0.4688E+00  0.1031E+02
   5.657  0.4769E+00  0.1032E+02
   5.667  0.4861E+00  0.1032E+02
   5.677  0.4952E+00  0.1033E+02
   5.687  0.5114E+00  0.1033E+02
   5.697  0.5441E+00  0.1034E+02
   5.707  0.5767E+00  0.1034E+02
   5.717  0.6093E+00  0.1035E+02
   5.727  0.6419E+00  0.1036E+02
   5.737  0.6749E+00  0.1036E+02
   5.747  0.7358E+00  0.1037E+02
   5.757  0.8001E+00  0.1038E+02
   5.767  0.8269E+00  0.1039E+02
   5.777  0.8198E+00  0.1039E+02
   5.787  0.8187E+00  0.1040E+02
   5.797  0.8179E+00  0.1041E+02
   5.807  0.8171E+00  0.1042E+02
   5.817  0.8162E+00  0.1043E+02
   5.827  0.8154E+00  0.1044E+02
   5.837  0.8146E+00  0.1044E+02
   5.847  0.8813E+00  0.1045E+02
   5.857  0.9080E+00  0.1046E+02
   5.867  0.9352E+00  0.1047E+02
   5.877  0.9625E+00  0.1048E+02
   5.887  0.1137E+01  0.1049E+02
   5.897  0.1257E+01  0.1050E+02
   5.907  0.1228E+01  0.1051E+02
   5.917  0.1199E+01  0.1053E+02
   5.927  0.1170E+01  0.1054E+02
   5.937  0.1132E+01  0.1055E+02
   5.947  0.1100E+01  0.1056E+02
   5.957  0.1066E+01  0.1057E+02
   5.967  0.1033E+01  0.1058E+02
   5.977  0.1001E+01  0.1059E+02
   5.987  0.9704E+00  0.1060E+02
   5.997  0.9529E+00  0.1061E+02
   6.007  0.9429E+00  0.1062E+02
   6.017  0.9330E+00  0.1063E+02
   6.027  0.9232E+00  0.1064E+02
   6.037  0.9134E+00  0.1065E+02
   6.047  0.9036E+00  0.1066E+02
   6.057  0.8943E+00  0.1067E+02
   6.067  0.8857E+00  0.1068E+02
   6.077  0.8771E+00  0.1069E+02
   6.087  0.8720E+00  0.1069E+02
   6.097  0.8674E+00  0.1070E+02
   6.107  0.8630E+00  0.1071E+02
   6.117  0.8611E+00  0.1072E+02
   6.127  0.8643E+00  0.1073E+02
   6.137  0.8658E+00  0.1074E+02
   6.147  0.8671E+00  0.1075E+02
   6.157  0.8695E+00  0.1075E+02
   6.167  0.8735E+00  0.1076E+02
   6.177  0.8775E+00  0.1077E+02
   6.187  0.8815E+00  0.1078E+02
   6.197  0.8854E+00  0.1079E+02
   6.207  0.8894E+00  0.1080E+02
   6.217  0.8934E+00  0.1081E+02
   6.227  0.8991E+00  0.1082E+02
   6.237  0.9090E+00  0.1083E+02
   6.247  0.9189E+00  0.1083E+02
   6.257  0.9287E+00  0.1084E+02
   6.267  0.9386E+00  0.1085E+02
   6.277  0.9485E+00  0.1086E+02
   6.287  0.9584E+00  0.1087E+02
   6.297  0.9682E+00  0.1088E+02
   6.307  0.9778E+00  0.1089E+02
   6.317  0.9879E+00  0.1090E+02
   6.327  0.1003E+01  0.1091E+02
   6.337  0.1019E+01  0.1092E+02
   6.347  0.1034E+01  0.1093E+02
   6.357  0.1062E+01  0.1094E+02
   6.367  0.1232E+01  0.1095E+02
   6.377  0.1347E+01  0.1097E+02
   6.387  0.1243E+01  0.1098E+02
   6.397  0.1132E+01  0.1099E+02
   6.407  0.1024E+01  0.1100E+02
   6.417  0.9380E+00  0.1101E+02
   6.427  0.8519E+00  0.1102E+02
   6.437  0.7665E+00  0.1103E+02
   6.447  0.6844E+00  0.1104E+02
   6.457  0.6751E+00  0.1104E+02
   6.467  0.6659E+00  0.1105E+02
   6.477  0.6567E+00  0.1106E+02
   6.487  0.6474E+00  0.1106E+02
   6.497  0.6382E+00  0.1107E+02
   6.507  0.6289E+00  0.1108E+02
   6.517  0.6197E+00  0.1108E+02
   6.527  0.6105E+00  0.1109E+02
   6.537  0.6016E+00  0.1109E+02
   6.547  0.5927E+00  0.1110E+02
   6.557  0.5838E+00  0.1111E+02
   6.567  0.5755E+00  0.1111E+02
   6.577  0.5672E+00  0.1112E+02
   6.587  0.5590E+00  0.1112E+02
   6.597  0.5508E+00  0.1113E+02
   6.607  0.5426E+00  0.1113E+02
   6.617  0.5344E+00  0.1114E+02
   6.627  0.5262E+00  0.1114E+02
   6.637  0.5180E+00  0.1115E+02
   6.647  0.5098E+00  0.1116E+02
   6.657  0.5013E+00  0.1116E+02
   6.667  0.4507E+00  0.1117E+02
   6.677  0.4491E+00  0.1117E+02
   6.687  0.4486E+00  0.1117E+02
   6.697  0.4486E+00  0.1118E+02
   6.707  0.4486E+00  0.1118E+02
   6.717  0.4485E+00  0.1119E+02
   6.727  0.4485E+00  0.1119E+02
   6.737  0.4485E+00  0.1120E+02
   6.747  0.4485E+00  0.1120E+02
   6.757  0.4486E+00  0.1121E+02
   6.767  0.5016E+00  0.1121E+02
   6.777  0.5188E+00  0.1122E+02
   6.787  0.5359E+00  0.1122E+02
   6.797  0.5531E+00  0.1123E+02
   6.807  0.5703E+00  0.1123E+02
   6.817  0.5853E+00  0.1124E+02
   6.827  0.5962E+00  0.1124E+02
   6.837  0.6072E+00  0.1125E+02
   6.847  0.6181E+00  0.1126E+02
   6.857  0.6290E+00  0.1126E+02
   6.867  0.6400E+00  0.1127E+02
   6.877  0.6510E+00  0.1127E+02
   6.887  0.6624E+00  0.1128E+02
   6.897  0.6946E+00  0.1129E+02
   6.907  0.7378E+00  0.1130E+02
   6.917  0.7877E+00  0.1130E+02
   6.927  0.8445E+00  0.1131E+02
   6.937  0.9014E+00  0.1132E+02
   6.947  0.9582E+00  0.1133E+02
   6.957  0.1015E+01  0.1134E+02
   6.967  0.1072E+01  0.1135E+02
   6.977  0.1129E+01  0.1136E+02
   6.987  0.1184E+01  0.1137E+02
   6.997  0.1241E+01  0.1138E+02
   7.007  0.1240E+01  0.1140E+02
   7.017  0.1222E+01  0.1141E+02
   7.027  0.1185E+01  0.1142E+02
   7.037  0.1154E+01  0.1143E+02
   7.047  0.1135E+01  0.1144E+02
   7.057  0.1123E+01  0.1146E+02
   7.067  0.1141E+01  0.1147E+02
   7.077  0.1162E+01  0.1148E+02
   7.087  0.1182E+01  0.1149E+02
   7.097  0.1188E+01  0.1150E+02
   7.107  0.1190E+01  0.1151E+02
   7.117  0.1192E+01  0.1153E+02
   7.127  0.1173E+01  0.1154E+02
   7.137  0.1120E+01  0.1155E+02
   7.147  0.1069E+01  0.1156E+02
   7.157  0.1017E+01  0.1157E+02
   7.167  0.9656E+00  0.1158E+02
   7.177  0.9140E+00  0.1159E+02
   7.187  0.8624E+00  0.1160E+02
   7.197  0.8125E+00  0.1161E+02
   7.207  0.7828E+00  0.1161E+02
   7.217  0.7551E+00  0.1162E+02
   7.227  0.7282E+00  0.1163E+02
   7.237  0.7016E+00  0.1164E+02
   7.247  0.6750E+00  0.1164E+02
   7.257  0.6491E+00  0.1165E+02
   7.267  0.6365E+00  0.1166E+02
   7.277  0.6316E+00  0.1166E+02
   7.287  0.6267E+00  0.1167E+02
   7.297  0.6217E+00  0.1168E+02
   7.307  0.6168E+00  0.1168E+02
   7.317  0.6119E+00  0.1169E+02
   7.327  0.7109E+00  0.1169E+02
   7.337  0.8309E+00  0.1170E+02
   7.347  0.9028E+00  0.1171E+02
   7.357  0.9955E+00  0.1172E+02
   7.367  0.1101E+01  0.1173E+02
   7.377  0.1207E+01  0.1174E+02
   7.387  0.1486E+01  0.1176E+02
   7.397  0.1496E+01  0.1177E+02
   7.407  0.1498E+01  0.1179E+02
   7.417  0.1398E+01  0.1180E+02
   7.427  0.1372E+01  0.1181E+02
   7.437  0.1374E+01  0.1183E+02
   7.447  0.1335E+01  0.1184E+02
   7.457  0.1292E+01  0.1185E+02
   7.467  0.1248E+01  0.1187E+02
   7.477  0.1202E+01  0.1188E+02
   7.487  0.1202E+01  0.1189E+02
   7.497  0.1228E+01  0.1190E+02
   7.507  0.1257E+01  0.1192E+02
   7.517  0.1286E+01  0.1193E+02
   7.527  0.1315E+01  0.1194E+02
   7.537  0.1331E+01  0.1195E+02
   7.547  0.1327E+01  0.1197E+02
   7.557  0.1363E+01  0.1198E+02
   7.567  0.1440E+01  0.1200E+02
   7.577  0.1517E+01  0.1201E+02
   7.587  0.1591E+01  0.1203E+02
   7.597  0.1661E+01  0.1204E+02
   7.607  0.1732E+01  0.1206E+02
   7.617  0.1793E+01  0.1208E+02
   7.627  0.1723E+01  0.1209E+02
   7.637  0.1651E+01  0.1211E+02
   7.647  0.1580E+01  0.1213E+02
   7.657  0.1495E+01  0.1214E+02
   7.667  0.1464E+01  0.1216E+02
   7.677  0.1438E+01  0.1217E+02
   7.687  0.1447E+01  0.1219E+02
   7.697  0.1556E+01  0.1220E+02
   7.707  0.1608E+01  0.1222E+02
   7.717  0.1577E+01  0.1223E+02
   7.727  0.1547E+01  0.1225E+02
   7.737  0.1522E+01  0.1226E+02
   7.747  0.1507E+01  0.1228E+02
   7.757  0.1492E+01  0.1229E+02
   7.767  0.1477E+01  0.1231E+02
   7.777  0.1461E+01  0.1232E+02
   7.787  0.1338E+01  0.1234E+02
   7.797  0.1333E+01  0.1235E+02
   7.807  0.1330E+01  0.1236E+02
   7.817  0.1327E+01  0.1238E+02
   7.827  0.1324E+01  0.1239E+02
   7.837  0.1321E+01  0.1240E+02
   7.847  0.1318E+01  0.1242E+02
   7.857  0.1311E+01  0.1243E+02
   7.867  0.1284E+01  0.1244E+02
   7.877  0.1273E+01  0.1246E+02
   7.887  0.1262E+01  0.1247E+02
   7.897  0.1252E+01  0.1248E+02
   7.907  0.1242E+01  0.1249E+02
   7.917  0.1231E+01  0.1251E+02
   7.927  0.1215E+01  0.1252E+02
   7.937  0.1203E+01  0.1253E+02
   7.947  0.1194E+01  0.1254E+02
   7.957  0.1185E+01  0.1255E+02
   7.967  0.1177E+01  0.1257E+02
   7.977  0.1168E+01  0.1258E+02
   7.987  0.1159E+01  0.1259E+02
   7.997  0.1156E+01  0.1260E+02
   8.007  0.1156E+01  0.1261E+02
   8.017  0.1153E+01  0.1262E+02
   8.027  0.1150E+01  0.1264E+02
   8.037  0.1371E+01  0.1265E+02
   8.047  0.1511E+01  0.1266E+02
   8.057  0.1600E+01  0.1268E+02
   8.067  0.1692E+01  0.1270E+02
   8.077  0.1556E+01  0.1271E+02
   8.087  0.1692E+01  0.1273E+02
   8.097  0.1843E+01  0.1275E+02
   8.107  0.1995E+01  0.1277E+02
   8.117  0.1983E+01  0.1279E+02
   8.127  0.2160E+01  0.1281E+02
   8.137  0.2368E+01  0.1283E+02
   8.147  0.2731E+01  0.1286E+02
   8.157  0.2613E+01  0.1288E+02
   8.167  0.2464E+01  0.1291E+02
   8.177  0.2249E+01  0.1293E+02
   8.187  0.2026E+01  0.1295E+02
   8.197  0.1663E+01  0.1297E+02
   8.207  0.1643E+01  0.1299E+02
   8.217  0.1622E+01  0.1300E+02
   8.227  0.1595E+01  0.1302E+02
   8.237  0.1567E+01  0.1304E+02
   8.247  0.1543E+01  0.1305E+02
   8.257  0.1517E+01  0.1307E+02
   8.267  0.1492E+01  0.1308E+02
   8.277  0.1423E+01  0.1310E+02
   8.287  0.1399E+01  0.1311E+02
   8.297  0.1384E+01  0.1312E+02
   8.307  0.1369E+01  0.1314E+02
   8.317  0.1354E+01  0.1315E+02
   8.327  0.1338E+01  0.1316E+02
   8.337  0.1315E+01  0.1318E+02
   8.347  0.1279E+01  0.1319E+02
   8.357  0.1246E+01  0.1320E+02
   8.367  0.1229E+01  0.1322E+02
   8.377  0.1211E+01  0.1323E+02
   8.387  0.1194E+01  0.1324E+02
   8.397  0.1176E+01  0.1325E+02
   8.407  0.1159E+01  0.1326E+02
   8.417  0.1147E+01  0.1328E+02
   8.427  0.1139E+01  0.1329E+02
   8.437  0.1130E+01  0.1330E+02
   8.447  0.1122E+01  0.1331E+02
   8.457  0.1113E+01  0.1332E+02
   8.467  0.1104E+01  0.1333E+02
   8.477  0.1096E+01  0.1334E+02
   8.487  0.1088E+01  0.1335E+02
   8.497  0.1081E+01  0.1336E+02
   8.507  0.1073E+01  0.1337E+02
   8.517  0.1065E+01  0.1339E+02
   8.527  0.1057E+01  0.1340E+02
   8.537  0.1118E+01  0.1341E+02
   8.547  0.1167E+01  0.1342E+02
   8.557  0.1174E+01  0.1343E+02
   8.567  0.1103E+01  0.1344E+02
   8.577  0.1035E+01  0.1345E+02
   8.587  0.9695E+00  0.1346E+02
   8.597  0.9047E+00  0.1347E+02
   8.607  0.8400E+00  0.1348E+02
   8.617  0.8234E+00  0.1349E+02
   8.627  0.8231E+00  0.1350E+02
   8.637  0.8219E+00  0.1351E+02
   8.647  0.8211E+00  0.1351E+02
   8.657  0.8202E+00  0.1352E+02
   8.667  0.8194E+00  0.1353E+02
   8.677  0.8183E+00  0.1354E+02
   8.687  0.8147E+00  0.1355E+02
   8.697  0.8137E+00  0.1355E+02
   8.707  0.8081E+00  0.1356E+02
   8.717  0.8019E+00  0.1357E+02
   8.727  0.7985E+00  0.1358E+02
   8.737  0.7953E+00  0.1359E+02
   8.747  0.7919E+00  0.1359E+02
   8.757  0.7903E+00  0.1360E+02
   8.767  0.7898E+00  0.1361E+02
   8.777  0.7893E+00  0.1362E+02
   8.787  0.7888E+00  0.1363E+02
   8.797  0.7884E+00  0.1363E+02
   8.807  0.7859E+00  0.1364E+02
   8.817  0.7835E+00  0.1365E+02
   8.827  0.7811E+00  0.1366E+02
   8.837  0.7787E+00  0.1367E+02
   8.847  0.7764E+00  0.1367E+02
   8.857  0.7740E+00  0.1368E+02
   8.867  0.7717E+00  0.1369E+02
   8.877  0.7699E+00  0.1370E+02
   8.887  0.7695E+00  0.1370E+02
   8.897  0.7690E+00  0.1371E+02
   8.907  0.7686E+00  0.1372E+02
   8.917  0.7681E+00  0.1373E+02
   8.927  0.7676E+00  0.1373E+02
   8.937  0.7672E+00  0.1374E+02
   8.947  0.7667E+00  0.1375E+02
   8.957  0.7662E+00  0.1376E+02
   8.967  0.7657E+00  0.1377E+02
   8.977  0.7651E+00  0.1377E+02
   8.987  0.7646E+00  0.1378E+02
   8.997  0.7641E+00  0.1379E+02
   9.007  0.7639E+00  0.1380E+02
   9.017  0.7642E+00  0.1380E+02
   9.027  0.7645E+00  0.1381E+02
   9.037  0.7648E+00  0.1382E+02
   9.047  0.7645E+00  0.1383E+02
   9.057  0.7642E+00  0.1383E+02
   9.067  0.7639E+00  0.1384E+02
   9.077  0.7636E+00  0.1385E+02
   9.087  0.7635E+00  0.1386E+02
   9.097  0.7634E+00  0.1386E+02
   9.107  0.7633E+00  0.1387E+02
   9.117  0.7632E+00  0.1388E+02
   9.127  0.7631E+00  0.1389E+02
   9.137  0.7629E+00  0.1390E+02
   9.147  0.7618E+00  0.1390E+02
   9.157  0.7606E+00  0.1391E+02
   9.167  0.7586E+00  0.1392E+02
   9.177  0.7541E+00  0.1393E+02
   9.187  0.7526E+00  0.1393E+02
   9.197  0.7527E+00  0.1394E+02
   9.207  0.7528E+00  0.1395E+02
   9.217  0.7529E+00  0.1396E+02
   9.227  0.7530E+00  0.1396E+02
   9.237  0.7531E+00  0.1397E+02
   9.247  0.7532E+00  0.1398E+02
   9.257  0.7534E+00  0.1399E+02
   9.267  0.7535E+00  0.1399E+02
   9.277  0.7536E+00  0.1400E+02
   9.287  0.7551E+00  0.1401E+02
   9.297  0.7614E+00  0.1402E+02
   9.307  0.7608E+00  0.1402E+02
   9.317  0.7603E+00  0.1403E+02
   9.327  0.7597E+00  0.1404E+02
   9.337  0.7560E+00  0.1405E+02
   9.347  0.7520E+00  0.1405E+02
   9.357  0.7480E+00  0.1406E+02
   9.367  0.7453E+00  0.1407E+02
   9.377  0.7442E+00  0.1408E+02
   9.387  0.7431E+00  0.1408E+02
   9.397  0.7419E+00  0.1409E+02
   9.407  0.7408E+00  0.1410E+02
   9.417  0.7396E+00  0.1411E+02
   9.427  0.7382E+00  0.1411E+02
   9.437  0.7369E+00  0.1412E+02
   9.447  0.7357E+00  0.1413E+02
   9.457  0.7344E+00  0.1414E+02
   9.467  0.7332E+00  0.1414E+02
   9.477  0.7320E+00  0.1415E+02
   9.487  0.7308E+00  0.1416E+02
   9.497  0.7348E+00  0.1416E+02
   9.507  0.7345E+00  0.1417E+02
   9.517  0.7342E+00  0.1418E+02
   9.527  0.7338E+00  0.1419E+02
   9.537  0.7335E+00  0.1419E+02
   9.547  0.7331E+00  0.1420E+02
   9.557  0.7328E+00  0.1421E+02
   9.567  0.7322E+00  0.1422E+02
   9.577  0.7312E+00  0.1422E+02
   9.587  0.7302E+00  0.1423E+02
   9.597  0.7292E+00  0.1424E+02
   9.607  0.7282E+00  0.1425E+02
   9.617  0.7273E+00  0.1425E+02
   9.627  0.7263E+00  0.1426E+02
   9.637  0.7253E+00  0.1427E+02
   9.647  0.7243E+00  0.1427E+02
   9.657  0.7233E+00  0.1428E+02
   9.667  0.7223E+00  0.1429E+02
   9.677  0.7213E+00  0.1430E+02
   9.687  0.7191E+00  0.1430E+02
   9.697  0.7172E+00  0.1431E+02
   9.707  0.7165E+00  0.1432E+02
   9.717  0.7170E+00  0.1432E+02
   9.727  0.7174E+00  0.1433E+02
   9.737  0.7179E+00  0.1434E+02
   9.747  0.7184E+00  0.1435E+02
   9.757  0.7188E+00  0.1435E+02
   9.767  0.7193E+00  0.1436E+02
   9.777  0.7197E+00  0.1437E+02
   9.787  0.7202E+00  0.1438E+02
   9.797  0.7206E+00  0.1438E+02
   9.807  0.7211E+00  0.1439E+02
   9.817  0.7215E+00  0.1440E+02
   9.827  0.7220E+00  0.1440E+02
   9.837  0.7224E+00  0.1441E+02
   9.847  0.7229E+00  0.1442E+02
   9.857  0.7233E+00  0.1443E+02
   9.867  0.7222E+00  0.1443E+02
   9.877  0.7225E+00  0.1444E+02
   9.887  0.7241E+00  0.1445E+02
   9.897  0.7307E+00  0.1445E+02
   9.907  0.7383E+00  0.1446E+02
   9.917  0.7485E+00  0.1447E+02
   9.927  0.7586E+00  0.1448E+02
   9.937  0.7707E+00  0.1448E+02
   9.947  0.7797E+00  0.1449E+02
   9.957  0.8287E+00  0.1450E+02
   9.967  0.9143E+00  0.1451E+02
   9.977  0.1000E+01  0.1452E+02
   9.987  0.1085E+01  0.1453E+02
   9.997  0.1166E+01  0.1454E+02
  10.007  0.1008E+01  0.1455E+02
  10.017  0.1013E+01  0.1456E+02
  10.027  0.1018E+01  0.1457E+02
  10.037  0.1023E+01  0.1458E+02
  10.047  0.1028E+01  0.1459E+02
  10.057  0.1033E+01  0.1460E+02
  10.067  0.1038E+01  0.1461E+02
  10.077  0.1049E+01  0.1462E+02
  10.087  0.1062E+01  0.1463E+02
  10.097  0.1075E+01  0.1464E+02
  10.107  0.1087E+01  0.1465E+02
  10.117  0.1116E+01  0.1467E+02
  10.127  0.1216E+01  0.1468E+02
  10.137  0.1320E+01  0.1469E+02
  10.147  0.1328E+01  0.1470E+02
  10.157  0.1325E+01  0.1472E+02
  10.167  0.1436E+01  0.1473E+02
  10.177  0.1442E+01  0.1474E+02
  10.187  0.1447E+01  0.1476E+02
  10.197  0.1247E+01  0.1477E+02
  10.207  0.1251E+01  0.1478E+02
  10.217  0.1247E+01  0.1480E+02
  10.227  0.1237E+01  0.1481E+02
  10.237  0.1208E+01  0.1482E+02
  10.247  0.1179E+01  0.1483E+02
  10.257  0.1149E+01  0.1484E+02
  10.267  0.1122E+01  0.1486E+02
  10.277  0.1066E+01  0.1487E+02
  10.287  0.1007E+01  0.1488E+02
  10.297  0.9868E+00  0.1489E+02
  10.307  0.9476E+00  0.1490E+02
  10.317  0.9235E+00  0.1491E+02
  10.327  0.9202E+00  0.1492E+02
  10.337  0.9590E+00  0.1493E+02
  10.347  0.9520E+00  0.1493E+02
  10.357  0.9450E+00  0.1494E+02
  10.367  0.9380E+00  0.1495E+02
  10.377  0.9309E+00  0.1496E+02
  10.387  0.9239E+00  0.1497E+02
  10.397  0.9168E+00  0.1498E+02
  10.407  0.9098E+00  0.1499E+02
  10.417  0.9028E+00  0.1500E+02
  10.427  0.8957E+00  0.1501E+02
  10.437  0.8887E+00  0.1502E+02
  10.447  0.8816E+00  0.1503E+02
  10.457  0.8746E+00  0.1504E+02
  10.467  0.9276E+00  0.1504E+02
  10.477  0.9148E+00  0.1505E+02
  10.487  0.9019E+00  0.1506E+02
  10.497  0.8891E+00  0.1507E+02
  10.507  0.8762E+00  0.1508E+02
  10.517  0.8632E+00  0.1509E+02
  10.527  0.8517E+00  0.1510E+02
  10.537  0.8419E+00  0.1511E+02
  10.547  0.8677E+00  0.1511E+02
  10.557  0.9927E+00  0.1512E+02
  10.567  0.1059E+01  0.1513E+02
  10.577  0.1017E+01  0.1514E+02
  10.587  0.9758E+00  0.1515E+02
  10.597  0.9344E+00  0.1516E+02
  10.607  0.6426E+00  0.1517E+02
  10.617  0.6374E+00  0.1518E+02
  10.627  0.6322E+00  0.1518E+02
  10.637  0.6271E+00  0.1519E+02
  10.647  0.6229E+00  0.1520E+02
  10.657  0.6195E+00  0.1520E+02
  10.667  0.6305E+00  0.1521E+02
  10.677  0.6526E+00  0.1521E+02
  10.687  0.6748E+00  0.1522E+02
  10.697  0.6983E+00  0.1523E+02
  10.707  0.7264E+00  0.1524E+02
  10.717  0.7550E+00  0.1524E+02
  10.727  0.7836E+00  0.1525E+02
  10.737  0.6099E+00  0.1526E+02
  10.747  0.6661E+00  0.1526E+02
  10.757  0.6594E+00  0.1527E+02
  10.767  0.6526E+00  0.1528E+02
  10.777  0.6487E+00  0.1528E+02
  10.787  0.6450E+00  0.1529E+02
  10.797  0.6422E+00  0.1530E+02
  10.807  0.6394E+00  0.1530E+02
  10.817  0.6364E+00  0.1531E+02
  10.827  0.6335E+00  0.1532E+02
  10.837  0.6284E+00  0.1532E+02
  10.847  0.6243E+00  0.1533E+02
  10.857  0.6667E+00  0.1534E+02
  10.867  0.6606E+00  0.1534E+02
  10.877  0.6551E+00  0.1535E+02
  10.887  0.6495E+00  0.1535E+02
  10.897  0.6437E+00  0.1536E+02
  10.907  0.6379E+00  0.1537E+02
  10.917  0.6321E+00  0.1537E+02
  10.927  0.6264E+00  0.1538E+02
  10.937  0.6206E+00  0.1539E+02
  10.947  0.6148E+00  0.1539E+02
  10.957  0.6091E+00  0.1540E+02
  10.967  0.6052E+00  0.1540E+02
  10.977  0.6038E+00  0.1541E+02
  10.987  0.6049E+00  0.1542E+02
  10.997  0.6059E+00  0.1542E+02
  11.007  0.6070E+00  0.1543E+02
  11.017  0.6081E+00  0.1544E+02
  11.027  0.6092E+00  0.1544E+02
  11.037  0.6103E+00  0.1545E+02
  11.047  0.6114E+00  0.1545E+02
  11.057  0.6109E+00  0.1546E+02
  11.067  0.6120E+00  0.1547E+02
  11.077  0.6257E+00  0.1547E+02
  11.087  0.6394E+00  0.1548E+02
  11.097  0.6530E+00  0.1548E+02
  11.107  0.6669E+00  0.1549E+02
  11.117  0.6898E+00  0.1550E+02
  11.127  0.7131E+00  0.1551E+02
  11.137  0.7400E+00  0.1551E+02
  11.147  0.8405E+00  0.1552E+02
  11.157  0.8496E+00  0.1553E+02
  11.167  0.8587E+00  0.1554E+02
  11.177  0.8678E+00  0.1555E+02
  11.187  0.8783E+00  0.1555E+02
  11.197  0.8903E+00  0.1556E+02
  11.207  0.8424E+00  0.1557E+02
  11.217  0.8351E+00  0.1558E+02
  11.227  0.8277E+00  0.1559E+02
  11.237  0.8204E+00  0.1560E+02
  11.247  0.8130E+00  0.1561E+02
  11.257  0.8057E+00  0.1561E+02
  11.267  0.7983E+00  0.1562E+02
  11.277  0.7910E+00  0.1563E+02
  11.287  0.7927E+00  0.1564E+02
  11.297  0.7951E+00  0.1565E+02
  11.307  0.7976E+00  0.1565E+02
  11.317  0.8001E+00  0.1566E+02
  11.327  0.8026E+00  0.1567E+02
  11.337  0.7334E+00  0.1568E+02
  11.347  0.7008E+00  0.1568E+02
  11.357  0.6682E+00  0.1569E+02
  11.367  0.6357E+00  0.1570E+02
  11.377  0.6028E+00  0.1570E+02
  11.387  0.5691E+00  0.1571E+02
  11.397  0.5309E+00  0.1572E+02
  11.407  0.4691E+00  0.1572E+02
  11.417  0.3164E+00  0.1572E+02
  11.427  0.3020E+00  0.1573E+02
  11.437  0.2872E+00  0.1573E+02
  11.447  0.2724E+00  0.1573E+02
  11.457  0.2576E+00  0.1574E+02
  11.467  0.2428E+00  0.1574E+02
  11.477  0.2329E+00  0.1574E+02
  11.487  0.2320E+00  0.1574E+02
  11.497  0.2312E+00  0.1575E+02
  11.507  0.2304E+00  0.1575E+02
  11.517  0.2296E+00  0.1575E+02
  11.527  0.2288E+00  0.1575E+02
  11.537  0.2280E+00  0.1575E+02
  11.547  0.2283E+00  0.1576E+02
  11.557  0.2288E+00  0.1576E+02
  11.567  0.2291E+00  0.1576E+02
  11.577  0.2292E+00  0.1576E+02
  11.587  0.2293E+00  0.1577E+02
  11.597  0.2294E+00  0.1577E+02
  11.607  0.2296E+00  0.1577E+02
  11.617  0.2297E+00  0.1577E+02
  11.627  0.2298E+00  0.1578E+02
  11.637  0.2137E+00  0.1578E+02
  11.647  0.2124E+00  0.1578E+02
  11.657  0.2110E+00  0.1578E+02
  11.667  0.2097E+00  0.1578E+02
  11.677  0.2083E+00  0.1579E+02
  11.687  0.2070E+00  0.1579E+02
  11.697  0.2057E+00  0.1579E+02
  11.707  0.2049E+00  0.1579E+02
  11.717  0.2040E+00  0.1579E+02
  11.727  0.2031E+00  0.1580E+02
  11.737  0.2022E+00  0.1580E+02
  11.747  0.2013E+00  0.1580E+02
  11.757  0.2004E+00  0.1580E+02
  11.767  0.1995E+00  0.1580E+02
  11.777  0.1987E+00  0.1581E+02
  11.787  0.1978E+00  0.1581E+02
  11.797  0.1969E+00  0.1581E+02
  11.807  0.1960E+00  0.1581E+02
  11.817  0.1951E+00  0.1581E+02
  11.827  0.1942E+00  0.1582E+02
  11.837  0.1933E+00  0.1582E+02
  11.847  0.1925E+00  0.1582E+02
  11.857  0.1916E+00  0.1582E+02
  11.867  0.1907E+00  0.1582E+02
  11.877  0.1898E+00  0.1583E+02
  11.887  0.1889E+00  0.1583E+02
  11.897  0.1880E+00  0.1583E+02
  11.907  0.1872E+00  0.1583E+02
  11.917  0.1863E+00  0.1583E+02
  11.927  0.1854E+00  0.1583E+02
  11.937  0.1845E+00  0.1584E+02
  11.947  0.1836E+00  0.1584E+02
  11.957  0.1827E+00  0.1584E+02
  11.967  0.1818E+00  0.1584E+02
  11.977  0.1810E+00  0.1584E+02
  11.987  0.1801E+00  0.1585E+02
  11.997  0.1792E+00  0.1585E+02
  12.007  0.1783E+00  0.1585E+02
  12.017  0.1774E+00  0.1585E+02
  12.027  0.1765E+00  0.1585E+02
  12.037  0.1760E+00  0.1585E+02
  12.047  0.1759E+00  0.1586E+02
  12.057  0.1855E+00  0.1586E+02
  12.067  0.1874E+00  0.1586E+02
  12.077  0.1894E+00  0.1586E+02
  12.087  0.1912E+00  0.1586E+02
  12.097  0.1926E+00  0.1587E+02
  12.107  0.1941E+00  0.1587E+02
  12.117  0.1943E+00  0.1587E+02
  12.127  0.1927E+00  0.1587E+02
  12.137  0.1911E+00  0.1587E+02
  12.147  0.1894E+00  0.1588E+02
  12.157  0.1878E+00  0.1588E+02
  12.167  0.1862E+00  0.1588E+02
  12.177  0.3413E+00  0.1588E+02
  12.187  0.5380E+00  0.1589E+02
  12.197  0.1826E+00  0.1589E+02
  12.207  0.1806E+00  0.1589E+02
  12.217  0.1785E+00  0.1589E+02
  12.227  0.1764E+00  0.1589E+02
  12.237  0.1744E+00  0.1590E+02
  12.247  0.1723E+00  0.1590E+02
  12.257  0.1702E+00  0.1590E+02
  12.267  0.1681E+00  0.1590E+02
  12.277  0.1661E+00  0.1590E+02
  12.287  0.1640E+00  0.1590E+02
  12.297  0.1619E+00  0.1591E+02
  12.307  0.1599E+00  0.1591E+02
  12.317  0.1578E+00  0.1591E+02
  12.327  0.1567E+00  0.1591E+02
  12.337  0.1559E+00  0.1591E+02
  12.347  0.1551E+00  0.1591E+02
  12.357  0.1543E+00  0.1592E+02
  12.367  0.1535E+00  0.1592E+02
  12.377  0.1527E+00  0.1592E+02
  12.387  0.1519E+00  0.1592E+02
  12.397  0.1511E+00  0.1592E+02
  12.407  0.1503E+00  0.1592E+02
  12.417  0.1495E+00  0.1592E+02
  12.427  0.1487E+00  0.1593E+02
  12.437  0.1479E+00  0.1593E+02
  12.447  0.1471E+00  0.1593E+02
  12.457  0.1463E+00  0.1593E+02
  12.467  0.1455E+00  0.1593E+02
  12.477  0.1447E+00  0.1593E+02
  12.487  0.1439E+00  0.1594E+02
  12.497  0.1431E+00  0.1594E+02
  12.507  0.1423E+00  0.1594E+02
  12.517  0.1415E+00  0.1594E+02
  12.527  0.1407E+00  0.1594E+02
  12.537  0.1399E+00  0.1594E+02
  12.547  0.1391E+00  0.1594E+02
  12.557  0.1383E+00  0.1595E+02
  12.567  0.1376E+00  0.1595E+02
  12.577  0.1368E+00  0.1595E+02
  12.587  0.1408E+00  0.1595E+02
  12.597  0.1469E+00  0.1595E+02
  12.607  0.1553E+00  0.1595E+02
  12.617  0.1851E+00  0.1595E+02
  12.627  0.2250E+00  0.1596E+02
  12.637  0.2653E+00  0.1596E+02
  12.647  0.3056E+00  0.1596E+02
  12.657  0.3458E+00  0.1596E+02
  12.667  0.3861E+00  0.1597E+02
  12.677  0.3785E+00  0.1597E+02
  12.687  0.3983E+00  0.1598E+02
  12.697  0.2443E+00  0.1598E+02
  12.707  0.2293E+00  0.1598E+02
  12.717  0.2144E+00  0.1598E+02
  12.727  0.1995E+00  0.1599E+02
  12.737  0.1846E+00  0.1599E+02
  12.747  0.1696E+00  0.1599E+02
  12.757  0.1547E+00  0.1599E+02
  12.767  0.1398E+00  0.1599E+02
  12.777  0.1249E+00  0.1599E+02
  12.787  0.1099E+00  0.1600E+02
  12.797  0.9501E-01  0.1600E+02
  12.807  0.8008E-01  0.1600E+02
  12.817  0.6516E-01  0.1600E+02
  12.827  0.5023E-01  0.1600E+02
  12.837  0.3531E-01  0.1600E+02
  12.847  0.2038E-01  0.1600E+02
  12.857  0.5454E-02  0.1600E+02
